#                                                           
# ooooo   oooo ..     ooo        ooo ooooooooo.    .oooo.   
#  `88.   .8" .88.    `88.       .88 `88"   `Y8b  dP"  `Yb  
#   `88. .8" .8"88.    888b     d"88  88     888 88      88 
#    `88.8" .8" `88.   8 Y88. .P  88  88oooo888" 88      88 
#     `88" .88ooo888.  8  `888"   88  88    `88b 88      88 
#      88 .8"     `88. 8    Y     88  88    .88P `8b    d8" 
#     o88o88o      888o8          88 o88bood8P"   `Ybod8P"  
#                                                           
#                                                           
# GPL Version 4.4.0 Revision 148. (Based on r.16920 h.961a8d
#                         MPI Build                         
#                 http://www.yambo-code.org                 
#
# Absorption @ Q(1) [q->0 direction] : 0.0000000  0.0000000  1.0000000
#
#
# - Energies      are Perdew, Burke & Ernzerhof(X)+Perdew, Burke & Ernzerhof(C)
# - Wavefunctions are Perdew, Burke & Ernzerhof(X)+Perdew, Burke & Ernzerhof(C)
#
# - The Green`s function is T-ordered -
# - Using the Length Gauge -
# - [r,Vnl] *is* included -
#
#    E/ev[1]       EPS-Im[2]     EPS-Re[3]     EPSo-Im[4]    EPSo-Re[5]
#
      0.00000       0.00206       1.23099       0.00286       1.27356
      0.01000       0.00206       1.23099       0.00286       1.27356
      0.02000       0.00206       1.23099       0.00286       1.27356
      0.03000       0.00206       1.23099       0.00286       1.27356
      0.04000       0.00206       1.23099       0.00286       1.27357
      0.05000       0.00206       1.23099       0.00286       1.27357
      0.06000       0.00206       1.23100       0.00286       1.27357
      0.07000       0.00206       1.23100       0.00286       1.27357
      0.08000       0.00206       1.23100       0.00286       1.27358
      0.09000       0.00206       1.23101       0.00286       1.27358
      0.10000       0.00206       1.23101       0.00286       1.27359
      0.11000       0.00206       1.23101       0.00286       1.27360
      0.12000       0.00206       1.23102       0.00286       1.27360
      0.13000       0.00206       1.23102       0.00286       1.27361
      0.14000       0.00206       1.23103       0.00286       1.27362
      0.15000       0.00206       1.23104       0.00286       1.27363
      0.16000       0.00206       1.23104       0.00286       1.27364
      0.17000       0.00206       1.23105       0.00287       1.27365
      0.18000       0.00206       1.23106       0.00287       1.27366
      0.19000       0.00206       1.23107       0.00287       1.27367
      0.20000       0.00206       1.23107       0.00287       1.27368
      0.21000       0.00206       1.23108       0.00287       1.27369
      0.22000       0.00206       1.23109       0.00287       1.27371
      0.23000       0.00207       1.23110       0.00287       1.27372
      0.24000       0.00207       1.23111       0.00287       1.27373
      0.25000       0.00207       1.23112       0.00287       1.27375
      0.26000       0.00207       1.23113       0.00287       1.27376
      0.27000       0.00207       1.23115       0.00287       1.27378
      0.28000       0.00207       1.23116       0.00287       1.27380
      0.29000       0.00207       1.23117       0.00287       1.27381
      0.30000       0.00207       1.23118       0.00287       1.27383
      0.31000       0.00207       1.23120       0.00287       1.27385
      0.32000       0.00207       1.23121       0.00287       1.27387
      0.33000       0.00207       1.23122       0.00287       1.27389
      0.34000       0.00207       1.23124       0.00287       1.27391
      0.35000       0.00207       1.23125       0.00287       1.27393
      0.36000       0.00207       1.23127       0.00287       1.27395
      0.37000       0.00207       1.23129       0.00288       1.27397
      0.38000       0.00207       1.23130       0.00288       1.27400
      0.39000       0.00207       1.23132       0.00288       1.27402
      0.40000       0.00207       1.23134       0.00288       1.27404
      0.41000       0.00207       1.23135       0.00288       1.27407
      0.42000       0.00207       1.23137       0.00288       1.27409
      0.43000       0.00207       1.23139       0.00288       1.27412
      0.44000       0.00207       1.23141       0.00288       1.27414
      0.45000       0.00207       1.23143       0.00288       1.27417
      0.46000       0.00208       1.23145       0.00288       1.27420
      0.47000       0.00208       1.23147       0.00288       1.27423
      0.48000       0.00208       1.23149       0.00288       1.27426
      0.49000       0.00208       1.23151       0.00289       1.27428
      0.50000       0.00208       1.23153       0.00289       1.27431
      0.51000       0.00208       1.23156       0.00289       1.27434
      0.52000       0.00208       1.23158       0.00289       1.27438
      0.53000       0.00208       1.23160       0.00289       1.27441
      0.54000       0.00208       1.23162       0.00289       1.27444
      0.55000       0.00208       1.23165       0.00289       1.27447
      0.56000       0.00208       1.23167       0.00289       1.27451
      0.57000       0.00208       1.23170       0.00289       1.27454
      0.58000       0.00208       1.23172       0.00289       1.27458
      0.59000       0.00208       1.23175       0.00290       1.27461
      0.60000       0.00208       1.23177       0.00290       1.27465
      0.61000       0.00209       1.23180       0.00290       1.27468
      0.62000       0.00209       1.23183       0.00290       1.27472
      0.63000       0.00209       1.23186       0.00290       1.27476
      0.64000       0.00209       1.23188       0.00290       1.27480
      0.65000       0.00209       1.23191       0.00290       1.27484
      0.66000       0.00209       1.23194       0.00290       1.27488
      0.67000       0.00209       1.23197       0.00291       1.27492
      0.68000       0.00209       1.23200       0.00291       1.27496
      0.69000       0.00209       1.23203       0.00291       1.27500
      0.70000       0.00209       1.23206       0.00291       1.27504
      0.71000       0.00209       1.23209       0.00291       1.27509
      0.72000       0.00209       1.23212       0.00291       1.27513
      0.73000       0.00210       1.23215       0.00291       1.27517
      0.74000       0.00210       1.23219       0.00292       1.27522
      0.75000       0.00210       1.23222       0.00292       1.27526
      0.76000       0.00210       1.23225       0.00292       1.27531
      0.77000       0.00210       1.23229       0.00292       1.27536
      0.78000       0.00210       1.23232       0.00292       1.27540
      0.79000       0.00210       1.23236       0.00292       1.27545
      0.80000       0.00210       1.23239       0.00292       1.27550
      0.81000       0.00210       1.23243       0.00293       1.27555
      0.82000       0.00210       1.23246       0.00293       1.27560
      0.83000       0.00211       1.23250       0.00293       1.27565
      0.84000       0.00211       1.23254       0.00293       1.27570
      0.85000       0.00211       1.23257       0.00293       1.27575
      0.86000       0.00211       1.23261       0.00293       1.27580
      0.87000       0.00211       1.23265       0.00294       1.27586
      0.88000       0.00211       1.23269       0.00294       1.27591
      0.89000       0.00211       1.23273       0.00294       1.27596
      0.90000       0.00211       1.23277       0.00294       1.27602
      0.91000       0.00211       1.23281       0.00294       1.27607
      0.92000       0.00212       1.23285       0.00294       1.27613
      0.93000       0.00212       1.23289       0.00295       1.27619
      0.94000       0.00212       1.23293       0.00295       1.27624
      0.95000       0.00212       1.23297       0.00295       1.27630
      0.96000       0.00212       1.23301       0.00295       1.27636
      0.97000       0.00212       1.23306       0.00295       1.27642
      0.98000       0.00212       1.23310       0.00296       1.27648
      0.99000       0.00212       1.23314       0.00296       1.27654
      1.00000       0.00213       1.23319       0.00296       1.27660
      1.01000       0.00213       1.23323       0.00296       1.27666
      1.02000       0.00213       1.23328       0.00296       1.27673
      1.03000       0.00213       1.23332       0.00297       1.27679
      1.04000       0.00213       1.23337       0.00297       1.27685
      1.05000       0.00213       1.23342       0.00297       1.27692
      1.06000       0.00213       1.23346       0.00297       1.27698
      1.07000       0.00214       1.23351       0.00297       1.27705
      1.08000       0.00214       1.23356       0.00298       1.27712
      1.09000       0.00214       1.23361       0.00298       1.27718
      1.10000       0.00214       1.23366       0.00298       1.27725
      1.11000       0.00214       1.23371       0.00298       1.27732
      1.12000       0.00214       1.23376       0.00298       1.27739
      1.13000       0.00214       1.23381       0.00299       1.27746
      1.14000       0.00215       1.23386       0.00299       1.27753
      1.15000       0.00215       1.23391       0.00299       1.27760
      1.16000       0.00215       1.23396       0.00299       1.27767
      1.17000       0.00215       1.23401       0.00300       1.27774
      1.18000       0.00215       1.23406       0.00300       1.27781
      1.19000       0.00215       1.23412       0.00300       1.27789
      1.20000       0.00215       1.23417       0.00300       1.27796
      1.21000       0.00216       1.23422       0.00301       1.27804
      1.22000       0.00216       1.23428       0.00301       1.27811
      1.23000       0.00216       1.23433       0.00301       1.27819
      1.24000       0.00216       1.23439       0.00301       1.27827
      1.25000       0.00216       1.23445       0.00302       1.27834
      1.26000       0.00216       1.23450       0.00302       1.27842
      1.27000       0.00217       1.23456       0.00302       1.27850
      1.28000       0.00217       1.23462       0.00302       1.27858
      1.29000       0.00217       1.23467       0.00303       1.27866
      1.30000       0.00217       1.23473       0.00303       1.27874
      1.31000       0.00217       1.23479       0.00303       1.27882
      1.32000       0.00217       1.23485       0.00303       1.27891
      1.33000       0.00218       1.23491       0.00304       1.27899
      1.34000       0.00218       1.23497       0.00304       1.27907
      1.35000       0.00218       1.23503       0.00304       1.27916
      1.36000       0.00218       1.23509       0.00304       1.27924
      1.37000       0.00218       1.23515       0.00305       1.27933
      1.38000       0.00219       1.23522       0.00305       1.27941
      1.39000       0.00219       1.23528       0.00305       1.27950
      1.40000       0.00219       1.23534       0.00306       1.27959
      1.41000       0.00219       1.23541       0.00306       1.27968
      1.42000       0.00219       1.23547       0.00306       1.27977
      1.43000       0.00219       1.23554       0.00306       1.27986
      1.44000       0.00220       1.23560       0.00307       1.27995
      1.45000       0.00220       1.23567       0.00307       1.28004
      1.46000       0.00220       1.23573       0.00307       1.28013
      1.47000       0.00220       1.23580       0.00308       1.28022
      1.48000       0.00220       1.23587       0.00308       1.28031
      1.49000       0.00221       1.23593       0.00308       1.28041
      1.50000       0.00221       1.23600       0.00309       1.28050
      1.51000       0.00221       1.23607       0.00309       1.28060
      1.52000       0.00221       1.23614       0.00309       1.28069
      1.53000       0.00221       1.23621       0.00310       1.28079
      1.54000       0.00222       1.23628       0.00310       1.28089
      1.55000       0.00222       1.23635       0.00310       1.28099
      1.56000       0.00222       1.23642       0.00311       1.28109
      1.57000       0.00222       1.23649       0.00311       1.28118
      1.58000       0.00223       1.23656       0.00311       1.28128
      1.59000       0.00223       1.23664       0.00312       1.28139
      1.60000       0.00223       1.23671       0.00312       1.28149
      1.61000       0.00223       1.23678       0.00312       1.28159
      1.62000       0.00223       1.23686       0.00313       1.28169
      1.63000       0.00224       1.23693       0.00313       1.28180
      1.64000       0.00224       1.23701       0.00313       1.28190
      1.65000       0.00224       1.23708       0.00314       1.28201
      1.66000       0.00224       1.23716       0.00314       1.28211
      1.67000       0.00225       1.23724       0.00314       1.28222
      1.68000       0.00225       1.23731       0.00315       1.28233
      1.69000       0.00225       1.23739       0.00315       1.28243
      1.70000       0.00225       1.23747       0.00315       1.28254
      1.71000       0.00225       1.23755       0.00316       1.28265
      1.72000       0.00226       1.23763       0.00316       1.28276
      1.73000       0.00226       1.23771       0.00316       1.28287
      1.74000       0.00226       1.23779       0.00317       1.28299
      1.75000       0.00226       1.23787       0.00317       1.28310
      1.76000       0.00227       1.23795       0.00318       1.28321
      1.77000       0.00227       1.23803       0.00318       1.28333
      1.78000       0.00227       1.23811       0.00318       1.28344
      1.79000       0.00227       1.23820       0.00319       1.28356
      1.80000       0.00228       1.23828       0.00319       1.28367
      1.81000       0.00228       1.23836       0.00319       1.28379
      1.82000       0.00228       1.23845       0.00320       1.28391
      1.83000       0.00228       1.23853       0.00320       1.28403
      1.84000       0.00229       1.23862       0.00321       1.28414
      1.85000       0.00229       1.23870       0.00321       1.28426
      1.86000       0.00229       1.23879       0.00321       1.28439
      1.87000       0.00230       1.23888       0.00322       1.28451
      1.88000       0.00230       1.23897       0.00322       1.28463
      1.89000       0.00230       1.23905       0.00323       1.28475
      1.90000       0.00230       1.23914       0.00323       1.28488
      1.91000       0.00231       1.23923       0.00324       1.28500
      1.92000       0.00231       1.23932       0.00324       1.28513
      1.93000       0.00231       1.23941       0.00324       1.28525
      1.94000       0.00231       1.23950       0.00325       1.28538
      1.95000       0.00232       1.23959       0.00325       1.28551
      1.96000       0.00232       1.23969       0.00326       1.28563
      1.97000       0.00232       1.23978       0.00326       1.28576
      1.98000       0.00233       1.23987       0.00327       1.28589
      1.99000       0.00233       1.23997       0.00327       1.28602
      2.00000       0.00233       1.24006       0.00327       1.28616
      2.01000       0.00233       1.24015       0.00328       1.28629
      2.02000       0.00234       1.24025       0.00328       1.28642
      2.03000       0.00234       1.24035       0.00329       1.28655
      2.04000       0.00234       1.24044       0.00329       1.28669
      2.05000       0.00235       1.24054       0.00330       1.28682
      2.06000       0.00235       1.24064       0.00330       1.28696
      2.07000       0.00235       1.24073       0.00331       1.28710
      2.08000       0.00235       1.24083       0.00331       1.28724
      2.09000       0.00236       1.24093       0.00332       1.28737
      2.10000       0.00236       1.24103       0.00332       1.28751
      2.11000       0.00236       1.24113       0.00332       1.28765
      2.12000       0.00237       1.24123       0.00333       1.28779
      2.13000       0.00237       1.24133       0.00333       1.28794
      2.14000       0.00237       1.24144       0.00334       1.28808
      2.15000       0.00238       1.24154       0.00334       1.28822
      2.16000       0.00238       1.24164       0.00335       1.28837
      2.17000       0.00238       1.24174       0.00335       1.28851
      2.18000       0.00239       1.24185       0.00336       1.28866
      2.19000       0.00239       1.24195       0.00336       1.28880
      2.20000       0.00239       1.24206       0.00337       1.28895
      2.21000       0.00240       1.24216       0.00337       1.28910
      2.22000       0.00240       1.24227       0.00338       1.28925
      2.23000       0.00240       1.24238       0.00338       1.28940
      2.24000       0.00241       1.24249       0.00339       1.28955
      2.25000       0.00241       1.24259       0.00339       1.28970
      2.26000       0.00241       1.24270       0.00340       1.28985
      2.27000       0.00242       1.24281       0.00341       1.29001
      2.28000       0.00242       1.24292       0.00341       1.29016
      2.29000       0.00242       1.24303       0.00342       1.29032
      2.30000       0.00243       1.24314       0.00342       1.29047
      2.31000       0.00243       1.24326       0.00343       1.29063
      2.32000       0.00243       1.24337       0.00343       1.29079
      2.33000       0.00244       1.24348       0.00344       1.29095
      2.34000       0.00244       1.24360       0.00344       1.29111
      2.35000       0.00244       1.24371       0.00345       1.29127
      2.36000       0.00245       1.24382       0.00345       1.29143
      2.37000       0.00245       1.24394       0.00346       1.29159
      2.38000       0.00245       1.24406       0.00347       1.29175
      2.39000       0.00246       1.24417       0.00347       1.29191
      2.40000       0.00246       1.24429       0.00348       1.29208
      2.41000       0.00247       1.24441       0.00348       1.29224
      2.42000       0.00247       1.24452       0.00349       1.29241
      2.43000       0.00247       1.24464       0.00349       1.29258
      2.44000       0.00248       1.24476       0.00350       1.29275
      2.45000       0.00248       1.24488       0.00351       1.29292
      2.46000       0.00248       1.24500       0.00351       1.29308
      2.47000       0.00249       1.24513       0.00352       1.29326
      2.48000       0.00249       1.24525       0.00352       1.29343
      2.49000       0.00250       1.24537       0.00353       1.29360
    2.5000       0.24996E-2     1.2455       0.35355E-2     1.2938   
    2.5100       0.25035E-2     1.2456       0.35416E-2     1.2939   
    2.5200       0.25074E-2     1.2457       0.35477E-2     1.2941   
    2.5300       0.25114E-2     1.2459       0.35539E-2     1.2943   
    2.5400       0.25154E-2     1.2460       0.35601E-2     1.2945   
    2.5500       0.25194E-2     1.2461       0.35663E-2     1.2947   
    2.5600       0.25234E-2     1.2462       0.35726E-2     1.2948   
    2.5700       0.25274E-2     1.2464       0.35789E-2     1.2950   
    2.5800       0.25315E-2     1.2465       0.35853E-2     1.2952   
    2.5900       0.25356E-2     1.2466       0.35916E-2     1.2954   
    2.6000       0.25397E-2     1.2468       0.35981E-2     1.2956   
    2.6100       0.25438E-2     1.2469       0.36045E-2     1.2957   
    2.6200       0.25480E-2     1.2470       0.36110E-2     1.2959   
    2.6300       0.25522E-2     1.2472       0.36176E-2     1.2961   
    2.6400       0.25564E-2     1.2473       0.36242E-2     1.2963   
    2.6500       0.25606E-2     1.2474       0.36308E-2     1.2965   
    2.6600       0.25649E-2     1.2476       0.36374E-2     1.2967   
    2.6700       0.25691E-2     1.2477       0.36441E-2     1.2969   
    2.6800       0.25734E-2     1.2478       0.36509E-2     1.2971   
    2.6900       0.25778E-2     1.2480       0.36577E-2     1.2972   
    2.7000       0.25821E-2     1.2481       0.36645E-2     1.2974   
    2.7100       0.25865E-2     1.2482       0.36713E-2     1.2976   
    2.7200       0.25909E-2     1.2484       0.36782E-2     1.2978   
    2.7300       0.25953E-2     1.2485       0.36852E-2     1.2980   
    2.7400       0.25998E-2     1.2486       0.36922E-2     1.2982   
    2.7500       0.26043E-2     1.2488       0.36992E-2     1.2984   
    2.7600       0.26088E-2     1.2489       0.37062E-2     1.2986   
    2.7700       0.26133E-2     1.2491       0.37133E-2     1.2988   
    2.7800       0.26178E-2     1.2492       0.37205E-2     1.2990   
    2.7900       0.26224E-2     1.2493       0.37277E-2     1.2992   
    2.8000       0.26270E-2     1.2495       0.37349E-2     1.2994   
    2.8100       0.26317E-2     1.2496       0.37422E-2     1.2996   
    2.8200       0.26363E-2     1.2498       0.37495E-2     1.2998   
    2.8300       0.26410E-2     1.2499       0.37569E-2     1.3000   
    2.8400       0.26457E-2     1.2501       0.37643E-2     1.3002   
    2.8500       0.26504E-2     1.2502       0.37717E-2     1.3004   
    2.8600       0.26552E-2     1.2504       0.37792E-2     1.3006   
    2.8700       0.26600E-2     1.2505       0.37867E-2     1.3009   
    2.8800       0.26648E-2     1.2507       0.37943E-2     1.3011   
    2.8900       0.26696E-2     1.2508       0.38019E-2     1.3013   
    2.9000       0.26745E-2     1.2510       0.38096E-2     1.3015   
    2.9100       0.26794E-2     1.2511       0.38173E-2     1.3017   
    2.9200       0.26843E-2     1.2513       0.38251E-2     1.3019   
    2.9300       0.26893E-2     1.2514       0.38329E-2     1.3021   
    2.9400       0.26942E-2     1.2516       0.38407E-2     1.3023   
    2.9500       0.26992E-2     1.2517       0.38486E-2     1.3026   
    2.9600       0.27043E-2     1.2519       0.38566E-2     1.3028   
    2.9700       0.27093E-2     1.2520       0.38645E-2     1.3030   
    2.9800       0.27144E-2     1.2522       0.38726E-2     1.3032   
    2.9900       0.27195E-2     1.2523       0.38807E-2     1.3034   
    3.0000       0.27247E-2     1.2525       0.38888E-2     1.3037   
    3.0100       0.27298E-2     1.2526       0.38970E-2     1.3039   
    3.0200       0.27350E-2     1.2528       0.39052E-2     1.3041   
    3.0300       0.27403E-2     1.2530       0.39134E-2     1.3043   
    3.0400       0.27455E-2     1.2531       0.39218E-2     1.3046   
    3.0500       0.27508E-2     1.2533       0.39301E-2     1.3048   
    3.0600       0.27561E-2     1.2534       0.39385E-2     1.3050   
    3.0700       0.27615E-2     1.2536       0.39470E-2     1.3053   
    3.0800       0.27669E-2     1.2538       0.39555E-2     1.3055   
    3.0900       0.27723E-2     1.2539       0.39641E-2     1.3057   
    3.1000       0.27777E-2     1.2541       0.39727E-2     1.3060   
    3.1100       0.27832E-2     1.2543       0.39814E-2     1.3062   
    3.1200       0.27886E-2     1.2544       0.39901E-2     1.3064   
    3.1300       0.27942E-2     1.2546       0.39988E-2     1.3067   
    3.1400       0.27997E-2     1.2548       0.40077E-2     1.3069   
    3.1500       0.28053E-2     1.2549       0.40165E-2     1.3071   
    3.1600       0.28109E-2     1.2551       0.40254E-2     1.3074   
    3.1700       0.28166E-2     1.2553       0.40344E-2     1.3076   
    3.1800       0.28223E-2     1.2554       0.40434E-2     1.3079   
    3.1900       0.28280E-2     1.2556       0.40525E-2     1.3081   
    3.2000       0.28337E-2     1.2558       0.40616E-2     1.3083   
    3.2100       0.28395E-2     1.2560       0.40708E-2     1.3086   
    3.2200       0.28453E-2     1.2561       0.40801E-2     1.3088   
    3.2300       0.28511E-2     1.2563       0.40893E-2     1.3091   
    3.2400       0.28570E-2     1.2565       0.40987E-2     1.3093   
    3.2500       0.28629E-2     1.2567       0.41081E-2     1.3096   
    3.2600       0.28688E-2     1.2568       0.41175E-2     1.3098   
    3.2700       0.28748E-2     1.2570       0.41270E-2     1.3101   
    3.2800       0.28808E-2     1.2572       0.41366E-2     1.3104   
    3.2900       0.28868E-2     1.2574       0.41462E-2     1.3106   
    3.3000       0.28929E-2     1.2575       0.41559E-2     1.3109   
    3.3100       0.28990E-2     1.2577       0.41656E-2     1.3111   
    3.3200       0.29051E-2     1.2579       0.41754E-2     1.3114   
    3.3300       0.29113E-2     1.2581       0.41853E-2     1.3116   
    3.3400       0.29175E-2     1.2583       0.41952E-2     1.3119   
    3.3500       0.29237E-2     1.2585       0.42051E-2     1.3122   
    3.3600       0.29300E-2     1.2586       0.42152E-2     1.3124   
    3.3700       0.29363E-2     1.2588       0.42252E-2     1.3127   
    3.3800       0.29426E-2     1.2590       0.42354E-2     1.3130   
    3.3900       0.29490E-2     1.2592       0.42456E-2     1.3132   
    3.4000       0.29554E-2     1.2594       0.42558E-2     1.3135   
    3.4100       0.29618E-2     1.2596       0.42661E-2     1.3138   
    3.4200       0.29683E-2     1.2598       0.42765E-2     1.3140   
    3.4300       0.29748E-2     1.2600       0.42870E-2     1.3143   
    3.4400       0.29813E-2     1.2601       0.42975E-2     1.3146   
    3.4500       0.29879E-2     1.2603       0.43080E-2     1.3149   
    3.4600       0.29945E-2     1.2605       0.43186E-2     1.3151   
    3.4700       0.30012E-2     1.2607       0.43293E-2     1.3154   
    3.4800       0.30079E-2     1.2609       0.43401E-2     1.3157   
    3.4900       0.30146E-2     1.2611       0.43509E-2     1.3160   
    3.5000       0.30214E-2     1.2613       0.43618E-2     1.3163   
    3.5100       0.30282E-2     1.2615       0.43727E-2     1.3165   
    3.5200       0.30350E-2     1.2617       0.43837E-2     1.3168   
    3.5300       0.30419E-2     1.2619       0.43948E-2     1.3171   
    3.5400       0.30488E-2     1.2621       0.44059E-2     1.3174   
    3.5500       0.30558E-2     1.2623       0.44171E-2     1.3177   
    3.5600       0.30628E-2     1.2625       0.44284E-2     1.3180   
    3.5700       0.30698E-2     1.2627       0.44397E-2     1.3183   
    3.5800       0.30769E-2     1.2629       0.44511E-2     1.3186   
    3.5900       0.30840E-2     1.2631       0.44626E-2     1.3189   
    3.6000       0.30911E-2     1.2633       0.44741E-2     1.3192   
    3.6100       0.30983E-2     1.2635       0.44857E-2     1.3195   
    3.6200       0.31055E-2     1.2637       0.44974E-2     1.3198   
    3.6300       0.31128E-2     1.2639       0.45091E-2     1.3201   
    3.6400       0.31201E-2     1.2642       0.45209E-2     1.3204   
    3.6500       0.31274E-2     1.2644       0.45328E-2     1.3207   
    3.6600       0.31348E-2     1.2646       0.45447E-2     1.3210   
    3.6700       0.31423E-2     1.2648       0.45568E-2     1.3213   
    3.6800       0.31497E-2     1.2650       0.45689E-2     1.3216   
    3.6900       0.31572E-2     1.2652       0.45810E-2     1.3219   
    3.7000       0.31648E-2     1.2654       0.45933E-2     1.3222   
    3.7100       0.31724E-2     1.2656       0.46056E-2     1.3225   
    3.7200       0.31800E-2     1.2659       0.46179E-2     1.3228   
    3.7300       0.31877E-2     1.2661       0.46304E-2     1.3231   
    3.7400       0.31954E-2     1.2663       0.46429E-2     1.3234   
    3.7500       0.32032E-2     1.2665       0.46555E-2     1.3238   
    3.7600       0.32110E-2     1.2667       0.46682E-2     1.3241   
    3.7700       0.32189E-2     1.2670       0.46810E-2     1.3244   
    3.7800       0.32267E-2     1.2672       0.46938E-2     1.3247   
    3.7900       0.32347E-2     1.2674       0.47067E-2     1.3250   
    3.8000       0.32427E-2     1.2676       0.47197E-2     1.3254   
    3.8100       0.32507E-2     1.2679       0.47328E-2     1.3257   
    3.8200       0.32588E-2     1.2681       0.47459E-2     1.3260   
    3.8300       0.32669E-2     1.2683       0.47592E-2     1.3264   
    3.8400       0.32750E-2     1.2685       0.47725E-2     1.3267   
    3.8500       0.32833E-2     1.2688       0.47859E-2     1.3270   
    3.8600       0.32915E-2     1.2690       0.47993E-2     1.3274   
    3.8700       0.32998E-2     1.2692       0.48129E-2     1.3277   
    3.8800       0.33082E-2     1.2695       0.48265E-2     1.3280   
    3.8900       0.33165E-2     1.2697       0.48402E-2     1.3284   
    3.9000       0.33250E-2     1.2699       0.48540E-2     1.3287   
    3.9100       0.33335E-2     1.2702       0.48679E-2     1.3290   
    3.9200       0.33420E-2     1.2704       0.48818E-2     1.3294   
    3.9300       0.33506E-2     1.2706       0.48959E-2     1.3297   
    3.9400       0.33592E-2     1.2709       0.49100E-2     1.3301   
    3.9500       0.33679E-2     1.2711       0.49242E-2     1.3304   
    3.9600       0.33766E-2     1.2714       0.49386E-2     1.3308   
    3.9700       0.33854E-2     1.2716       0.49529E-2     1.3311   
    3.9800       0.33942E-2     1.2718       0.49674E-2     1.3315   
    3.9900       0.34031E-2     1.2721       0.49820E-2     1.3318   
    4.0000       0.34120E-2     1.2723       0.49967E-2     1.3322   
    4.0100       0.34210E-2     1.2726       0.50114E-2     1.3326   
    4.0200       0.34301E-2     1.2728       0.50262E-2     1.3329   
    4.0300       0.34391E-2     1.2731       0.50412E-2     1.3333   
    4.0400       0.34483E-2     1.2733       0.50562E-2     1.3336   
    4.0500       0.34574E-2     1.2736       0.50713E-2     1.3340   
    4.0600       0.34667E-2     1.2738       0.50865E-2     1.3344   
    4.0700       0.34760E-2     1.2741       0.51018E-2     1.3347   
    4.0800       0.34853E-2     1.2743       0.51172E-2     1.3351   
    4.0900       0.34947E-2     1.2746       0.51327E-2     1.3355   
    4.1000       0.35042E-2     1.2748       0.51483E-2     1.3359   
    4.1100       0.35137E-2     1.2751       0.51640E-2     1.3362   
    4.1200       0.35232E-2     1.2753       0.51798E-2     1.3366   
    4.1300       0.35328E-2     1.2756       0.51956E-2     1.3370   
    4.1400       0.35425E-2     1.2759       0.52116E-2     1.3374   
    4.1500       0.35522E-2     1.2761       0.52277E-2     1.3378   
    4.1600       0.35620E-2     1.2764       0.52439E-2     1.3381   
    4.1700       0.35718E-2     1.2767       0.52602E-2     1.3385   
    4.1800       0.35817E-2     1.2769       0.52765E-2     1.3389   
    4.1900       0.35916E-2     1.2772       0.52930E-2     1.3393   
    4.2000       0.36016E-2     1.2774       0.53096E-2     1.3397   
    4.2100       0.36117E-2     1.2777       0.53263E-2     1.3401   
    4.2200       0.36218E-2     1.2780       0.53431E-2     1.3405   
    4.2300       0.36320E-2     1.2783       0.53600E-2     1.3409   
    4.2400       0.36422E-2     1.2785       0.53770E-2     1.3413   
    4.2500       0.36525E-2     1.2788       0.53941E-2     1.3417   
    4.2600       0.36629E-2     1.2791       0.54113E-2     1.3421   
    4.2700       0.36733E-2     1.2794       0.54287E-2     1.3425   
    4.2800       0.36838E-2     1.2796       0.54461E-2     1.3429   
    4.2900       0.36943E-2     1.2799       0.54637E-2     1.3433   
    4.3000       0.37049E-2     1.2802       0.54813E-2     1.3437   
    4.3100       0.37156E-2     1.2805       0.54991E-2     1.3441   
    4.3200       0.37263E-2     1.2807       0.55170E-2     1.3445   
    4.3300       0.37371E-2     1.2810       0.55350E-2     1.3450   
    4.3400       0.37479E-2     1.2813       0.55531E-2     1.3454   
    4.3500       0.37588E-2     1.2816       0.55714E-2     1.3458   
    4.3600       0.37698E-2     1.2819       0.55897E-2     1.3462   
    4.3700       0.37808E-2     1.2822       0.56082E-2     1.3466   
    4.3800       0.37919E-2     1.2825       0.56268E-2     1.3471   
    4.3900       0.38031E-2     1.2828       0.56455E-2     1.3475   
    4.4000       0.38143E-2     1.2830       0.56643E-2     1.3479   
    4.4100       0.38256E-2     1.2833       0.56832E-2     1.3484   
    4.4200       0.38370E-2     1.2836       0.57023E-2     1.3488   
    4.4300       0.38484E-2     1.2839       0.57215E-2     1.3492   
    4.4400       0.38599E-2     1.2842       0.57408E-2     1.3497   
    4.4500       0.38715E-2     1.2845       0.57603E-2     1.3501   
    4.4600       0.38831E-2     1.2848       0.57798E-2     1.3506   
    4.4700       0.38948E-2     1.2851       0.57995E-2     1.3510   
    4.4800       0.39066E-2     1.2854       0.58194E-2     1.3515   
    4.4900       0.39184E-2     1.2857       0.58393E-2     1.3519   
    4.5000       0.39303E-2     1.2860       0.58594E-2     1.3524   
    4.5100       0.39423E-2     1.2863       0.58796E-2     1.3528   
    4.5200       0.39544E-2     1.2866       0.59000E-2     1.3533   
    4.5300       0.39665E-2     1.2870       0.59205E-2     1.3537   
    4.5400       0.39787E-2     1.2873       0.59411E-2     1.3542   
    4.5500       0.39910E-2     1.2876       0.59618E-2     1.3547   
    4.5600       0.40033E-2     1.2879       0.59827E-2     1.3551   
    4.5700       0.40157E-2     1.2882       0.60038E-2     1.3556   
    4.5800       0.40282E-2     1.2885       0.60249E-2     1.3561   
    4.5900       0.40408E-2     1.2888       0.60462E-2     1.3565   
    4.6000       0.40534E-2     1.2892       0.60677E-2     1.3570   
    4.6100       0.40662E-2     1.2895       0.60893E-2     1.3575   
    4.6200       0.40790E-2     1.2898       0.61110E-2     1.3580   
    4.6300       0.40918E-2     1.2901       0.61329E-2     1.3584   
    4.6400       0.41048E-2     1.2904       0.61549E-2     1.3589   
    4.6500       0.41178E-2     1.2908       0.61771E-2     1.3594   
    4.6600       0.41309E-2     1.2911       0.61994E-2     1.3599   
    4.6700       0.41441E-2     1.2914       0.62219E-2     1.3604   
    4.6800       0.41574E-2     1.2918       0.62445E-2     1.3609   
    4.6900       0.41708E-2     1.2921       0.62673E-2     1.3614   
    4.7000       0.41842E-2     1.2924       0.62902E-2     1.3619   
    4.7100       0.41977E-2     1.2928       0.63133E-2     1.3624   
    4.7200       0.42113E-2     1.2931       0.63366E-2     1.3629   
    4.7300       0.42250E-2     1.2934       0.63600E-2     1.3634   
    4.7400       0.42387E-2     1.2938       0.63835E-2     1.3639   
    4.7500       0.42526E-2     1.2941       0.64072E-2     1.3644   
    4.7600       0.42665E-2     1.2945       0.64311E-2     1.3649   
    4.7700       0.42806E-2     1.2948       0.64552E-2     1.3654   
    4.7800       0.42947E-2     1.2951       0.64794E-2     1.3660   
    4.7900       0.43089E-2     1.2955       0.65038E-2     1.3665   
    4.8000       0.43231E-2     1.2958       0.65283E-2     1.3670   
    4.8100       0.43375E-2     1.2962       0.65530E-2     1.3675   
    4.8200       0.43520E-2     1.2965       0.65779E-2     1.3681   
    4.8300       0.43665E-2     1.2969       0.66030E-2     1.3686   
    4.8400       0.43812E-2     1.2972       0.66282E-2     1.3691   
    4.8500       0.43959E-2     1.2976       0.66536E-2     1.3697   
    4.8600       0.44107E-2     1.2980       0.66792E-2     1.3702   
    4.8700       0.44257E-2     1.2983       0.67049E-2     1.3708   
    4.8800       0.44407E-2     1.2987       0.67309E-2     1.3713   
    4.8900       0.44558E-2     1.2990       0.67570E-2     1.3719   
    4.9000       0.44710E-2     1.2994       0.67833E-2     1.3724   
    4.9100       0.44863E-2     1.2998       0.68098E-2     1.3730   
    4.9200       0.45017E-2     1.3001       0.68364E-2     1.3735   
    4.9300       0.45172E-2     1.3005       0.68633E-2     1.3741   
    4.9400       0.45328E-2     1.3009       0.68904E-2     1.3746   
    4.9500       0.45484E-2     1.3013       0.69176E-2     1.3752   
    4.9600       0.45642E-2     1.3016       0.69450E-2     1.3758   
    4.9700       0.45801E-2     1.3020       0.69727E-2     1.3763   
    4.9800       0.45961E-2     1.3024       0.70005E-2     1.3769   
    4.9900       0.46122E-2     1.3028       0.70285E-2     1.3775   
    5.0000       0.46284E-2     1.3032       0.70567E-2     1.3781   
    5.0100       0.46447E-2     1.3035       0.70852E-2     1.3787   
    5.0200       0.46611E-2     1.3039       0.71138E-2     1.3792   
    5.0300       0.46776E-2     1.3043       0.71426E-2     1.3798   
    5.0400       0.46942E-2     1.3047       0.71717E-2     1.3804   
    5.0500       0.47110E-2     1.3051       0.72009E-2     1.3810   
    5.0600       0.47278E-2     1.3055       0.72304E-2     1.3816   
    5.0700       0.47447E-2     1.3059       0.72601E-2     1.3822   
    5.0800       0.47618E-2     1.3063       0.72900E-2     1.3828   
    5.0900       0.47789E-2     1.3067       0.73201E-2     1.3834   
    5.1000       0.47962E-2     1.3071       0.73504E-2     1.3840   
    5.1100       0.48136E-2     1.3075       0.73809E-2     1.3847   
    5.1200       0.48311E-2     1.3079       0.74117E-2     1.3853   
    5.1300       0.48487E-2     1.3083       0.74427E-2     1.3859   
    5.1400       0.48664E-2     1.3087       0.74739E-2     1.3865   
    5.1500       0.48843E-2     1.3091       0.75054E-2     1.3872   
    5.1600       0.49022E-2     1.3095       0.75371E-2     1.3878   
    5.1700       0.49203E-2     1.3099       0.75690E-2     1.3884   
    5.1800       0.49385E-2     1.3104       0.76012E-2     1.3891   
    5.1900       0.49568E-2     1.3108       0.76336E-2     1.3897   
    5.2000       0.49753E-2     1.3112       0.76662E-2     1.3903   
    5.2100       0.49938E-2     1.3116       0.76991E-2     1.3910   
    5.2200       0.50125E-2     1.3120       0.77322E-2     1.3916   
    5.2300       0.50313E-2     1.3125       0.77656E-2     1.3923   
    5.2400       0.50503E-2     1.3129       0.77992E-2     1.3930   
    5.2500       0.50693E-2     1.3133       0.78331E-2     1.3936   
    5.2600       0.50885E-2     1.3138       0.78672E-2     1.3943   
    5.2700       0.51078E-2     1.3142       0.79016E-2     1.3949   
    5.2800       0.51273E-2     1.3146       0.79363E-2     1.3956   
    5.2900       0.51469E-2     1.3151       0.79712E-2     1.3963   
    5.3000       0.51666E-2     1.3155       0.80064E-2     1.3970   
    5.3100       0.51864E-2     1.3159       0.80418E-2     1.3977   
    5.3200       0.52064E-2     1.3164       0.80775E-2     1.3983   
    5.3300       0.52265E-2     1.3168       0.81135E-2     1.3990   
    5.3400       0.52468E-2     1.3173       0.81498E-2     1.3997   
    5.3500       0.52672E-2     1.3177       0.81863E-2     1.4004   
    5.3600       0.52877E-2     1.3182       0.82232E-2     1.4011   
    5.3700       0.53084E-2     1.3186       0.82603E-2     1.4018   
    5.3800       0.53292E-2     1.3191       0.82977E-2     1.4025   
    5.3900       0.53501E-2     1.3196       0.83354E-2     1.4033   
    5.4000       0.53712E-2     1.3200       0.83734E-2     1.4040   
    5.4100       0.53925E-2     1.3205       0.84116E-2     1.4047   
    5.4200       0.54139E-2     1.3210       0.84502E-2     1.4054   
      5.43000       0.00544       1.32142       0.00849       1.40616
      5.44000       0.00546       1.32189       0.00853       1.40689
      5.45000       0.00548       1.32237       0.00857       1.40763
      5.46000       0.00550       1.32284       0.00861       1.40837
      5.47000       0.00552       1.32332       0.00865       1.40912
      5.48000       0.00555       1.32380       0.00869       1.40987
      5.49000       0.00557       1.32429       0.00873       1.41062
      5.50000       0.00559       1.32477       0.00877       1.41138
      5.51000       0.00561       1.32526       0.00881       1.41214
      5.52000       0.00564       1.32575       0.00885       1.41291
      5.53000       0.00566       1.32624       0.00890       1.41368
      5.54000       0.00568       1.32674       0.00894       1.41446
      5.55000       0.00571       1.32724       0.00898       1.41524
      5.56000       0.00573       1.32774       0.00902       1.41602
      5.57000       0.00575       1.32824       0.00907       1.41681
      5.58000       0.00578       1.32874       0.00911       1.41760
      5.59000       0.00580       1.32925       0.00915       1.41840
      5.60000       0.00583       1.32976       0.00920       1.41921
      5.61000       0.00585       1.33028       0.00924       1.42001
      5.62000       0.00587       1.33079       0.00929       1.42082
      5.63000       0.00590       1.33131       0.00934       1.42164
      5.64000       0.00592       1.33183       0.00938       1.42246
      5.65000       0.00595       1.33235       0.00943       1.42329
      5.66000       0.00597       1.33288       0.00947       1.42412
      5.67000       0.00600       1.33341       0.00952       1.42496
      5.68000       0.00603       1.33394       0.00957       1.42580
      5.69000       0.00605       1.33447       0.00962       1.42664
      5.70000       0.00608       1.33501       0.00967       1.42749
      5.71000       0.00610       1.33555       0.00971       1.42835
      5.72000       0.00613       1.33609       0.00976       1.42921
      5.73000       0.00616       1.33664       0.00981       1.43008
      5.74000       0.00618       1.33719       0.00986       1.43095
      5.75000       0.00621       1.33774       0.00991       1.43182
      5.76000       0.00624       1.33829       0.00996       1.43270
      5.77000       0.00627       1.33885       0.01002       1.43359
      5.78000       0.00629       1.33941       0.01007       1.43448
      5.79000       0.00632       1.33997       0.01012       1.43538
      5.80000       0.00635       1.34054       0.01017       1.43628
      5.81000       0.00638       1.34110       0.01023       1.43719
      5.82000       0.00641       1.34168       0.01028       1.43810
      5.83000       0.00644       1.34225       0.01033       1.43902
      5.84000       0.00646       1.34283       0.01039       1.43994
      5.85000       0.00649       1.34341       0.01044       1.44087
      5.86000       0.00652       1.34399       0.01050       1.44181
      5.87000       0.00655       1.34458       0.01055       1.44275
      5.88000       0.00658       1.34517       0.01061       1.44370
      5.89000       0.00661       1.34576       0.01067       1.44465
      5.90000       0.00664       1.34636       0.01072       1.44561
      5.91000       0.00667       1.34696       0.01078       1.44657
      5.92000       0.00670       1.34756       0.01084       1.44754
      5.93000       0.00674       1.34816       0.01090       1.44852
      5.94000       0.00677       1.34877       0.01096       1.44950
      5.95000       0.00680       1.34939       0.01102       1.45049
      5.96000       0.00683       1.35000       0.01108       1.45149
      5.97000       0.00686       1.35062       0.01114       1.45249
      5.98000       0.00689       1.35124       0.01120       1.45349
      5.99000       0.00693       1.35187       0.01126       1.45451
      6.00000       0.00696       1.35250       0.01133       1.45553
      6.01000       0.00699       1.35313       0.01139       1.45655
      6.02000       0.00703       1.35376       0.01145       1.45759
      6.03000       0.00706       1.35440       0.01152       1.45863
      6.04000       0.00709       1.35505       0.01158       1.45967
      6.05000       0.00713       1.35569       0.01165       1.46072
      6.06000       0.00716       1.35634       0.01172       1.46178
      6.07000       0.00720       1.35700       0.01178       1.46285
      6.08000       0.00723       1.35765       0.01185       1.46392
      6.09000       0.00727       1.35831       0.01192       1.46500
      6.10000       0.00730       1.35898       0.01199       1.46609
      6.11000       0.00734       1.35965       0.01206       1.46718
      6.12000       0.00737       1.36032       0.01213       1.46828
      6.13000       0.00741       1.36099       0.01220       1.46939
      6.14000       0.00745       1.36167       0.01227       1.47051
      6.15000       0.00748       1.36236       0.01234       1.47163
      6.16000       0.00752       1.36304       0.01242       1.47276
      6.17000       0.00756       1.36373       0.01249       1.47390
      6.18000       0.00760       1.36443       0.01256       1.47504
      6.19000       0.00763       1.36513       0.01264       1.47619
      6.20000       0.00767       1.36583       0.01271       1.47735
      6.21000       0.00771       1.36654       0.01279       1.47852
      6.22000       0.00775       1.36725       0.01287       1.47970
      6.23000       0.00779       1.36796       0.01295       1.48088
      6.24000       0.00783       1.36868       0.01302       1.48207
      6.25000       0.00787       1.36940       0.01310       1.48327
      6.26000       0.00791       1.37013       0.01318       1.48448
      6.27000       0.00795       1.37086       0.01327       1.48569
      6.28000       0.00799       1.37160       0.01335       1.48692
      6.29000       0.00803       1.37234       0.01343       1.48815
      6.30000       0.00808       1.37308       0.01351       1.48939
      6.31000       0.00812       1.37383       0.01360       1.49064
      6.32000       0.00816       1.37458       0.01368       1.49190
      6.33000       0.00820       1.37534       0.01377       1.49316
      6.34000       0.00825       1.37610       0.01386       1.49444
      6.35000       0.00829       1.37687       0.01394       1.49572
      6.36000       0.00833       1.37764       0.01403       1.49701
      6.37000       0.00838       1.37841       0.01412       1.49832
      6.38000       0.00842       1.37919       0.01421       1.49963
      6.39000       0.00847       1.37998       0.01430       1.50095
      6.40000       0.00851       1.38077       0.01440       1.50228
      6.41000       0.00856       1.38156       0.01449       1.50361
      6.42000       0.00861       1.38236       0.01458       1.50496
      6.43000       0.00865       1.38316       0.01468       1.50632
      6.44000       0.00870       1.38397       0.01478       1.50769
      6.45000       0.00875       1.38478       0.01487       1.50906
      6.46000       0.00880       1.38560       0.01497       1.51045
      6.47000       0.00885       1.38643       0.01507       1.51185
      6.48000       0.00889       1.38725       0.01517       1.51326
      6.49000       0.00894       1.38809       0.01527       1.51467
      6.50000       0.00899       1.38893       0.01538       1.51610
      6.51000       0.00904       1.38977       0.01548       1.51754
      6.52000       0.00910       1.39062       0.01558       1.51899
      6.53000       0.00915       1.39147       0.01569       1.52045
      6.54000       0.00920       1.39233       0.01580       1.52191
      6.55000       0.00925       1.39319       0.01591       1.52340
      6.56000       0.00930       1.39406       0.01602       1.52489
      6.57000       0.00936       1.39494       0.01613       1.52639
      6.58000       0.00941       1.39582       0.01624       1.52790
      6.59000       0.00946       1.39671       0.01635       1.52943
      6.60000       0.00952       1.39760       0.01647       1.53097
      6.61000       0.00957       1.39849       0.01658       1.53251
      6.62000       0.00963       1.39940       0.01670       1.53407
      6.63000       0.00969       1.40031       0.01682       1.53564
      6.64000       0.00974       1.40122       0.01694       1.53723
      6.65000       0.00980       1.40214       0.01706       1.53882
      6.66000       0.00986       1.40307       0.01718       1.54043
      6.67000       0.00992       1.40400       0.01730       1.54205
      6.68000       0.00998       1.40494       0.01743       1.54369
     6.690000      0.010035      1.405881      0.017556      1.545331
     6.700000      0.010095      1.406832      0.017684      1.546989
     6.710000      0.010155      1.407788      0.017813      1.548660
     6.720000      0.010217      1.408751      0.017944      1.550344
     6.730000      0.010279      1.409719      0.018077      1.552042
     6.740000      0.010341      1.410695      0.018211      1.553753
     6.750000      0.010404      1.411676      0.018347      1.555477
     6.760000      0.010468      1.412664      0.018484      1.557215
     6.770000      0.010532      1.413659      0.018623      1.558967
     6.780000      0.010597      1.414660      0.018764      1.560733
     6.790000      0.010663      1.415668      0.018906      1.562513
     6.800000      0.010729      1.416683      0.019050      1.564307
     6.810000      0.010796      1.417704      0.019196      1.566116
     6.820000      0.010864      1.418732      0.019344      1.567940
     6.830000      0.010932      1.419767      0.019493      1.569778
     6.840000      0.011001      1.420809      0.019644      1.571632
     6.850000      0.011071      1.421859      0.019797      1.573501
     6.860000      0.011141      1.422915      0.019952      1.575385
     6.870000      0.011212      1.423978      0.020109      1.577285
     6.880000      0.011284      1.425049      0.020268      1.579200
     6.890000      0.011357      1.426127      0.020428      1.581132
     6.900000      0.011430      1.427213      0.020591      1.583080
     6.910000      0.011504      1.428305      0.020756      1.585044
     6.920000      0.011579      1.429406      0.020923      1.587025
     6.930000      0.011654      1.430514      0.021092      1.589022
     6.940000      0.011731      1.431630      0.021263      1.591037
     6.950000      0.011808      1.432754      0.021436      1.593068
     6.960000      0.011886      1.433885      0.021612      1.595118
     6.970000      0.011965      1.435025      0.021790      1.597184
     6.980000      0.012045      1.436172      0.021970      1.599269
     6.990000      0.012125      1.437328      0.022153      1.601372
     7.000000      0.012207      1.438492      0.022337      1.603493
     7.010000      0.012289      1.439664      0.022525      1.605633
     7.020000      0.012373      1.440845      0.022715      1.607792
     7.030000      0.012457      1.442034      0.022907      1.609969
     7.040000      0.012542      1.443232      0.023102      1.612166
     7.050000      0.012628      1.444438      0.023299      1.614383
     7.060000      0.012715      1.445653      0.023499      1.616619
     7.070000      0.012802      1.446877      0.023702      1.618875
     7.080000      0.012891      1.448110      0.023908      1.621152
     7.090000      0.012981      1.449352      0.024116      1.623450
     7.100000      0.013072      1.450603      0.024327      1.625768
     7.110000      0.013164      1.451863      0.024541      1.628108
     7.120000      0.013257      1.453132      0.024759      1.630469
     7.130000      0.013351      1.454411      0.024979      1.632852
     7.140000      0.013446      1.455700      0.025202      1.635257
     7.150000      0.013542      1.456998      0.025428      1.637684
     7.160000      0.013639      1.458306      0.025658      1.640134
     7.170000      0.013737      1.459624      0.025890      1.642607
     7.180000      0.013837      1.460952      0.026126      1.645104
     7.190000      0.013937      1.462290      0.026366      1.647624
     7.200000      0.014039      1.463638      0.026609      1.650168
     7.210000      0.014142      1.464997      0.026855      1.652736
     7.220000      0.014246      1.466366      0.027105      1.655329
     7.230000      0.014352      1.467745      0.027359      1.657947
     7.240000      0.014458      1.469135      0.027616      1.660591
     7.250000      0.014566      1.470537      0.027877      1.663260
     7.260000      0.014675      1.471948      0.028142      1.665956
     7.270000      0.014786      1.473372      0.028411      1.668678
     7.280000      0.014897      1.474806      0.028684      1.671427
     7.290000      0.015011      1.476251      0.028961      1.674203
     7.300000      0.015125      1.477708      0.029242      1.677007
     7.310000      0.015241      1.479177      0.029528      1.679840
     7.320000      0.015358      1.480658      0.029818      1.682700
     7.330000      0.015477      1.482150      0.030112      1.685590
     7.340000      0.015597      1.483654      0.030411      1.688510
     7.350000      0.015719      1.485171      0.030714      1.691459
     7.360000      0.015842      1.486699      0.031023      1.694438
     7.370000      0.015967      1.488241      0.031336      1.697449
     7.380000      0.016094      1.489795      0.031654      1.700490
     7.390000      0.016222      1.491361      0.031977      1.703564
     7.400000      0.016351      1.492941      0.032305      1.706670
     7.410000      0.016482      1.494534      0.032639      1.709808
     7.420000      0.016615      1.496140      0.032977      1.712980
     7.430000      0.016750      1.497759      0.033322      1.716186
     7.440000      0.016886      1.499393      0.033672      1.719426
     7.450000      0.017024      1.501039      0.034027      1.722702
     7.460000      0.017164      1.502700      0.034389      1.726012
     7.470000      0.017306      1.504375      0.034757      1.729359
     7.480000      0.017450      1.506065      0.035130      1.732743
     7.490000      0.017595      1.507768      0.035510      1.736164
     7.500000      0.017743      1.509487      0.035897      1.739622
     7.510000      0.017892      1.511220      0.036290      1.743120
     7.520000      0.018044      1.512969      0.036689      1.746656
     7.530000      0.018197      1.514733      0.037096      1.750233
     7.540000      0.018353      1.516512      0.037510      1.753850
     7.550000      0.018510      1.518307      0.037930      1.757508
     7.560000      0.018670      1.520118      0.038359      1.761209
     7.570000      0.018832      1.521945      0.038794      1.764952
     7.580000      0.018997      1.523788      0.039238      1.768738
     7.590000      0.019163      1.525648      0.039689      1.772569
     7.600000      0.019332      1.527525      0.040148      1.776444
     7.610000      0.019503      1.529419      0.040616      1.780366
     7.620000      0.019677      1.531330      0.041092      1.784334
     7.630000      0.019853      1.533259      0.041577      1.788349
     7.640000      0.020032      1.535205      0.042071      1.792413
     7.650000      0.020213      1.537169      0.042574      1.796526
     7.660000      0.020397      1.539152      0.043086      1.800689
     7.670000      0.020584      1.541153      0.043608      1.804903
     7.680000      0.020773      1.543173      0.044140      1.809169
     7.690000      0.020965      1.545212      0.044682      1.813488
     7.700000      0.021160      1.547270      0.045234      1.817860
     7.710000      0.021358      1.549348      0.045797      1.822288
     7.720000      0.021558      1.551446      0.046371      1.826772
     7.730000      0.021762      1.553564      0.046956      1.831313
     7.740000      0.021969      1.555702      0.047553      1.835912
     7.750000      0.022179      1.557862      0.048161      1.840570
     7.760000      0.022392      1.560042      0.048782      1.845289
     7.770000      0.022609      1.562244      0.049414      1.850069
     7.780000      0.022828      1.564467      0.050060      1.854912
     7.790000      0.023052      1.566713      0.050719      1.859819
     7.800000      0.023278      1.568981      0.051392      1.864792
     7.810000      0.023509      1.571272      0.052078      1.869832
     7.820000      0.023743      1.573586      0.052779      1.874939
     7.830000      0.023980      1.575924      0.053494      1.880116
     7.840000      0.024222      1.578285      0.054224      1.885365
     7.850000      0.024467      1.580671      0.054970      1.890685
     7.860000      0.024716      1.583081      0.055732      1.896079
     7.870000      0.024970      1.585516      0.056511      1.901549
     7.880000      0.025227      1.587977      0.057306      1.907096
     7.890000      0.025489      1.590463      0.058119      1.912722
     7.900000      0.025755      1.592976      0.058950      1.918429
     7.910000      0.026026      1.595515      0.059799      1.924217
     7.920000      0.026301      1.598082      0.060668      1.930090
     7.930000      0.026581      1.600676      0.061556      1.936048
     7.940000      0.026866      1.603298      0.062464      1.942095
     7.950000      0.027155      1.605949      0.063394      1.948231
     7.960000      0.027450      1.608629      0.064345      1.954459
     7.970000      0.027750      1.611338      0.065318      1.960781
     7.980000      0.028055      1.614077      0.066314      1.967199
     7.990000      0.028365      1.616847      0.067334      1.973715
     8.000000      0.028681      1.619647      0.068378      1.980332
     8.010000      0.029002      1.622480      0.069448      1.987052
     8.020000      0.029330      1.625344      0.070543      1.993877
     8.030000      0.029663      1.628242      0.071666      2.000811
     8.040000      0.030003      1.631172      0.072817      2.007855
     8.050000      0.030349      1.634137      0.073996      2.015012
     8.060000      0.030701      1.637136      0.075205      2.022286
     8.070000      0.031060      1.640170      0.076445      2.029678
     8.080000      0.031425      1.643240      0.077717      2.037193
     8.090000      0.031798      1.646346      0.079023      2.044832
     8.100000      0.032177      1.649490      0.080362      2.052600
     8.110000      0.032565      1.652672      0.081737      2.060499
     8.120000      0.032959      1.655892      0.083149      2.068533
     8.130000      0.033362      1.659151      0.084599      2.076706
     8.140000      0.033772      1.662451      0.086088      2.085020
     8.150000      0.034191      1.665792      0.087619      2.093481
     8.160000      0.034618      1.669174      0.089192      2.102091
     8.170000      0.035053      1.672598      0.090809      2.110856
     8.180000      0.035498      1.676066      0.092472      2.119778
     8.190000      0.035952      1.679579      0.094183      2.128864
     8.200000      0.036415      1.683136      0.095944      2.138116
     8.210000      0.036889      1.686740      0.097756      2.147540
     8.220000      0.037372      1.690390      0.099622      2.157141
     8.230000      0.037865      1.694089      0.101543      2.166923
     8.240000      0.038370      1.697836      0.103523      2.176893
     8.250000      0.038885      1.701634      0.105564      2.187055
     8.260000      0.039412      1.705482      0.107667      2.197415
     8.270000      0.039950      1.709383      0.109837      2.207980
     8.280000      0.040501      1.713337      0.112075      2.218755
     8.290000      0.041064      1.717346      0.114384      2.229747
     8.300000      0.041640      1.721411      0.116769      2.240963
     8.310000      0.042230      1.725532      0.119232      2.252409
     8.320000      0.042833      1.729712      0.121777      2.264094
     8.330000      0.043451      1.733951      0.124407      2.276023
     8.340000      0.044083      1.738252      0.127126      2.288207
     8.350000      0.044731      1.742615      0.129940      2.300652
     8.360000      0.045395      1.747041      0.132851      2.313367
     8.370000      0.046075      1.751534      0.135866      2.326362
     8.380000      0.046773      1.756093      0.138988      2.339646
     8.390000      0.047488      1.760721      0.142224      2.353229
     8.400000      0.048221      1.765419      0.145578      2.367121
     8.410000      0.048974      1.770189      0.149058      2.381333
     8.420000      0.049746      1.775033      0.152670      2.395877
     8.430000      0.050539      1.779953      0.156420      2.410764
     8.440000      0.051354      1.784950      0.160316      2.426006
     8.450000      0.052190      1.790027      0.164366      2.441618
     8.460000      0.053050      1.795186      0.168578      2.457612
     8.470000      0.053935      1.800430      0.172962      2.474004
     8.480000      0.054844      1.805759      0.177526      2.490807
     8.490000      0.055780      1.811177      0.182283      2.508039
     8.500000      0.056744      1.816686      0.187242      2.525716
     8.510000      0.057736      1.822289      0.192415      2.543856
     8.520000      0.058758      1.827987      0.197817      2.562477
     8.530000      0.059812      1.833785      0.203460      2.581599
     8.540000      0.060899      1.839685      0.209360      2.601242
     8.550000      0.062020      1.845690      0.215534      2.621429
     8.560000      0.063178      1.851803      0.221999      2.642183
     8.570000      0.064374      1.858027      0.228774      2.663527
     8.580000      0.065609      1.864367      0.235880      2.685487
     8.590000      0.066887      1.870824      0.243340      2.708091
     8.600000      0.068210      1.877403      0.251179      2.731368
     8.610000      0.069579      1.884109      0.259424      2.755347
     8.620000      0.070998      1.890944      0.268103      2.780060
     8.630000      0.072469      1.897914      0.277250      2.805543
     8.640000      0.073995      1.905023      0.286899      2.831831
     8.650000      0.075580      1.912276      0.297090      2.858962
     8.660000      0.077227      1.919677      0.307865      2.886976
     8.670000      0.078940      1.927231      0.319272      2.915917
     8.680000      0.080723      1.934945      0.331361      2.945830
     8.690000      0.082581      1.942824      0.344192      2.976762
     8.700000      0.084519      1.950874      0.357826      3.008765
     8.710000      0.086543      1.959101      0.372337      3.041893
     8.720000      0.088658      1.967512      0.387801      3.076202
     8.730000      0.090871      1.976115      0.404308      3.111751
     8.740000      0.093189      1.984915      0.421956      3.148604
     8.750000      0.095622      1.993921      0.440856      3.186827
     8.760000      0.098176      2.003142      0.461130      3.226488
    8.7700000     0.1008631     2.0125855     0.4829204     3.2676583
    8.7800000     0.1036935     2.0222605     0.5063837     3.3104115
    8.7900000     0.1066796     2.0321765     0.5316987     3.3548228
    8.8000000     0.1098353     2.0423432     0.5590681     3.4009675
    8.8100000     0.1131759     2.0527708     0.5887225     3.4489204
    8.8200000     0.1167187     2.0634699     0.6209242     3.4987534
    8.8300000     0.1204833     2.0744511     0.6559732     3.5505325
    8.8400000     0.1244916     2.0857256     0.6942124     3.6043147
    8.8500000     0.1287686     2.0973045     0.7360347     3.6601422
    8.8600000     0.1333425     2.1091990     0.7818908     3.7180357
    8.8700000     0.1382457     2.1214199     0.8322978     3.7779847
    8.8800000     0.1435146     2.1339774     0.8878492     3.8399347
    8.8900000     0.1491914     2.1468807     0.9492247     3.9037698
    8.9000000     0.1553239     2.1601372     1.0172012     3.9692896
    8.9100000     0.1619672     2.1737520     1.0926620     4.0361784
    8.9200000     0.1691842     2.1877263     1.1766036     4.1039646
    8.9300000     0.1770476     2.2020564     1.2701365     4.1719675
    8.9400000     0.1856400     2.2167312     1.3744764     4.2392286
    8.9500000     0.1950566     2.2317295     1.4909152     4.3044263
    8.9600000     0.2054052     2.2470167     1.6207648     4.3657713
    8.9700000     0.2168080     2.2625395     1.7652534     4.4208867
    8.9800000     0.2294019     2.2782199     1.9253555     4.4666840
    8.9900000     0.2433372     2.2939465     2.1015299     4.4992580
    9.0000000     0.2587755     2.3095646     2.2933416     4.5138484
    9.0100000     0.2758830     2.3248631     2.4989618     4.5049419
    9.0200000     0.2948196     2.3395595     2.7145808     4.4666246
    9.0300000     0.3157197     2.3532834     2.9338482     4.3933009
    9.0400000     0.3386623     2.3655621     3.1475702     4.2808516
    9.0500000     0.3636265     2.3758114     3.3439946     4.1281516
    9.0600000     0.3904318     2.3833416     3.5100046     3.9386000
    9.0700000     0.4186639     2.3873908     3.6332932     3.7210319
    9.0800000     0.4475974     2.3872015     3.7050850     3.4893287
    9.0900000     0.4761415     2.3821521     3.7224662     3.2604377
    9.1000000     0.5028450     2.3719424     3.6893053     3.0512793
    9.1100000     0.5260094     2.3568000     3.6153242     2.8756616
    9.1200000     0.5439314     2.3376374     3.5137726     2.7423177
    9.1300000     0.5552448     2.3160657     3.3987255     2.6545305
    9.1400000     0.5592565     2.2942047     3.2829406     2.6110492
    9.1500000     0.5561397     2.2743149     3.1766986     2.6076085
    9.1600000     0.5468908     2.2583766     3.0875507     2.6384228
    9.1700000     0.5330742     2.2477731     3.0206505     2.6973118
    9.1800000     0.5164681     2.2431740     2.9793386     2.7783773
    9.1900000     0.4987495     2.2446075     2.9657531     2.8763020
    9.2000000     0.4812972     2.2516452     2.9813493     2.9863856
    9.2100000     0.4651206     2.2636062     3.0272902     3.1044195
    9.2200000     0.4508810     2.2797266     3.1047102     3.2264712
    9.2300000     0.4389589     2.2992697     3.2148626     3.3486185
    9.2400000     0.4295324     2.3215854     3.3591632     3.4666542
    9.2500000     0.4226481     2.3461313     3.5391246     3.5757701
    9.2600000     0.4182762     2.3724704     3.7561673     3.6702328
    9.2700000     0.4163501     2.4002575     4.0112748     3.7430749
    9.2800000     0.4167917     2.4292209     4.3044530     3.7858539
    9.2900000     0.4195274     2.4591426     4.6339616     3.7885760
    9.3000000     0.4244957     2.4898401     4.9953234     3.7399372
    9.3100000     0.4316482     2.5211498     5.3802144     3.6280891
    9.3200000     0.4409460     2.5529115     5.7755034     3.4421293
    9.3300000     0.4523508     2.5849568     6.1629225     3.1743820
    9.3400000     0.4658101     2.6171000     6.5199957     2.8231805
    9.3500000     0.4812375     2.6491359     6.8227054     2.3953411
    9.3600000     0.4984873     2.6808477     7.0497502     1.9070805
    9.3700000     0.5173295     2.7120290     7.1872446     1.3822830
    9.3800000     0.5374310     2.7425255     7.2319490     0.8480467
    9.3900000     0.5583572     2.7722941     7.1913873     0.3289257
    9.4000000     0.5796091     2.8014697     7.0806156    -0.1578293
    9.4100000     0.6007032     2.8304163     6.9170580    -0.6041767
    9.4200000     0.6212846     2.8597315     6.7155964    -1.0099397
    9.4300000     0.6412398     2.8901837     6.4856754    -1.3792320
    9.4400000     0.6607620     2.9225906     6.2310932    -1.7163581
    9.4500000     0.6803414     2.9576796     5.9520519    -2.0227863
    9.4600000     0.7006841     2.9959809     5.6482691    -2.2961629
    9.4700000     0.7226002     3.0377863     5.3216940    -2.5314111
    9.4800000     0.7469037     3.0831680     4.9777291    -2.7230659
    9.4900000     0.7743515     3.1320348     4.6247170    -2.8675798
    9.5000000     0.8056242     3.1841925     4.2723005    -2.9646249
    9.5100000     0.8413383     3.2393922     3.9296024    -3.0171348
    9.5200000     0.8820722     3.2973558     3.6039356    -3.0304567
    9.5300000     0.9283978     3.3577818     3.3002678    -3.0111908
    9.5400000     0.9809062     3.4203338     3.0213034    -2.9661598
    9.5500000     1.0402264     3.4846153     2.7679051    -2.9017083
    9.5600000     1.1070327     3.5501351     2.5396187    -2.8233360
    9.5700000     1.1820380     3.6162636     2.3351530    -2.7355854
    9.5800000     1.2659688     3.6821833     2.1527574    -2.6420838
    9.5900000     1.3595151     3.7468370     1.9904853    -2.5456634
    9.6000000     1.4632474     3.8088835     1.8463613    -2.4485067
    9.6100000     1.5774939     3.8666747     1.7184734    -2.3522874
    9.6200000     1.7021746     3.9182831     1.6050099    -2.2582920
    9.6300000     1.8366078     3.9616138     1.5042607    -2.1675133
    9.6400000     1.9793275     3.9946441     1.4145950    -2.0807114
    9.6500000     2.1279947     4.0158131     1.3344315    -1.9984404
    9.6600000     2.2795186     4.0245304     1.2622168    -1.9210410
    9.6700000     2.4305009     4.0216806     1.1964317    -1.8486079
    9.6800000     2.5780243     4.0098950     1.1356386    -1.7809543
    9.6900000     2.7206328     3.9933493     1.0785703    -1.7176036
    9.7000000     2.8591645     3.9769806     1.0242357    -1.6578392
    9.7100000     2.9970767     3.9652902     0.9719975    -1.6008176
    9.7200000     3.1401001     3.9611218     0.9215814    -1.5457177
    9.7300000     3.2953705     3.9648009     0.8730068    -1.4918733
    9.7400000     3.4703763     3.9737937     0.8264678    -1.4388465
    9.7500000     3.6720211     3.9827811     0.7822093    -1.3864306
    9.7600000     3.9059057     3.9839203     0.7404368    -1.3346022
    9.7700000     4.1757490     3.9671098     0.7012699    -1.2834531
    9.7800000     4.4827755     3.9202173     0.6647339    -1.2331284
    9.7900000     4.8249162     3.8293785     0.6307735    -1.1837812
    9.8000000     5.1957642     3.6796021     0.5992755    -1.1355460
    9.8100000     5.5834058     3.4559859     0.5700907    -1.0885271
    9.8200000     5.9694963     3.1458193     0.5430521    -1.0427960
    9.8300000     6.3292281     2.7416218     0.5179885    -0.9983942
    9.8400000     6.6329842     2.2446767     0.4947325    -0.9553381
    9.8500000     6.8502048     1.6679468     0.4731259    -0.9136241
    9.8600000     6.9551181     1.0367930     0.4530221    -0.8732338
    9.8700000     6.9327407     0.3862647     0.4342874    -0.8341379
    9.8800000     6.7827751    -0.2448775     0.4168004    -0.7962998
    9.8900000     6.5195968    -0.8214902     0.4004518    -0.7596781
    9.9000000     6.1683413    -1.3179997     0.3851436    -0.7242284
    9.9100000     5.7589070    -1.7210706     0.3707877    -0.6899050
    9.9200000     5.3202503    -2.0288427     0.3573050    -0.6566620
    9.9300000     4.8765669    -2.2479740     0.3446249    -0.6244537
    9.9400000     4.4457057    -2.3900702     0.3326835    -0.5932354
    9.9500000     4.0392968    -2.4686189     0.3214238    -0.5629636
    9.9600000     3.6638068    -2.4968826     0.3107940    -0.5335966
    9.9700000     3.3218804    -2.4867231     0.3007475    -0.5050939
    9.9800000     3.0135878    -2.4481232     0.2912423    -0.4774171
    9.9900000     2.7374190    -2.3891395     0.2822401    -0.4505293
    10.000000      2.491003     -2.316081      0.273706     -0.424395
# 
# 09/19/2019 at 15:26 YAMBO @ Alejandro-4.local [start]
# 09/19/2019 at 15:26                           [end]
#  
# Timing   [Min/Max/Average]: 01s/01s/01s
#
# .-Input file : inputs/06-rpa-reference_z
# | optics                         # [R OPT] Optics
# | chi                            # [R CHI] Dyson equation for Chi.
# | BoseTemp= 0.000000     eV      # Bosonic Temperature
# | FFTGvecs= 201          RL      # [FFT] Plane-waves
# | Chimod= "HARTREE"              # [X] IP/Hartree/ALDA/LRC/PF/BSfxc
# | NGsBlkXd=  51          RL      # [Xd] Response block size
# | % QpntsRXd
# |  1 | 1 |                       # [Xd] Transferred momenta
# | %
# | % BndsRnXd
# |   3 |  5 |                     # [Xd] Polarization function bands
# | %
# | % EnRngeXd
# |   0.00000 | 10.00000 | eV      # [Xd] Energy range
# | %
# | % DmRngeXd
# |   0.10000 |  0.10000 | eV      # [Xd] Damping range
# | %
# | ETStpsXd= 1001                 # [Xd] Total Energy steps
# | % LongDrXd
# |  0.000    | 0.000    |0.1000E-4 |        # [Xd] [cc] Electric Field
# | %
