#                                                           
# :::   :::   :::     ::::    ::::  :::::::::   ::::::::    
# :+:   :+: :+: :+:   +:+:+: :+:+:+ :+:    :+: :+:    :+:   
#  +:+ +:+ +:+   +:+  +:+ +:+:+ +:+ +:+    +:+ +:+    +:+   
#   +#++: +#++:++#++: +#+  +:+  +#+ +#++:++#+  +#+    +:+   
#    +#+  +#+     +#+ +#+       +#+ +#+    +#+ +#+    +#+   
#    #+#  #+#     #+# #+#       #+# #+#    #+# #+#    #+#   
#    ###  ###     ### ###       ### #########   ########    
#                                                           
#                                                           
#       Version 4.4.0 Revision 16919 Hash 5175bb50d         
#                        MPI Build                          
#                http://www.yambo-code.org                  
#
# Absorption @ Q(1) [q->0 direction] : 0.5773503  0.5773503  0.5773503
#
#
# - Energies      are Perdew, Burke & Ernzerhof(X)+Perdew, Burke & Ernzerhof(C)
# - Wavefunctions are Perdew, Burke & Ernzerhof(X)+Perdew, Burke & Ernzerhof(C)
#
# - The Green`s function is T-ordered -
# - Using the Length Gauge -
# - [r,Vnl] *is* included -
#
#    E/ev[1]       EPS-Im[2]     EPS-Re[3]
#
     0.000000      0.447893     16.413839
   0.40040E-2    0.44789        16.414   
   0.80080E-2    0.44790        16.414   
   0.12012E-1    0.44791        16.414   
   0.16016E-1    0.44793        16.414   
     0.020020      0.447944     16.414382
     0.024024      0.447967     16.414622
     0.028028      0.447994     16.414904
     0.032032      0.448025     16.415231
     0.036036      0.448060     16.415600
     0.040040      0.448099     16.416014
     0.044044      0.448143     16.416470
     0.048048      0.448190     16.416971
     0.052052      0.448242     16.417515
     0.056056      0.448298     16.418102
     0.060060      0.448358     16.418733
     0.064064      0.448422     16.419408
     0.068068      0.448490     16.420126
     0.072072      0.448563     16.420888
     0.076076      0.448639     16.421693
     0.080080      0.448720     16.422542
     0.084084      0.448805     16.423435
     0.088088      0.448894     16.424372
     0.092092      0.448987     16.425352
     0.096096      0.449085     16.426376
     0.100100      0.449186     16.427443
     0.104104      0.449292     16.428554
     0.108108      0.449402     16.429710
     0.112112      0.449516     16.430908
     0.116116      0.449634     16.432151
     0.120120      0.449757     16.433438
     0.124124      0.449884     16.434768
     0.128128      0.450015     16.436143
     0.132132      0.450150     16.437561
     0.136136      0.450289     16.439023
     0.140140      0.450433     16.440529
     0.144144      0.450580     16.442080
     0.148148      0.450732     16.443674
     0.152152      0.450889     16.445312
     0.156156      0.451049     16.446995
     0.160160      0.451214     16.448721
     0.164164      0.451383     16.450492
     0.168168      0.451556     16.452307
     0.172172      0.451734     16.454166
     0.176176      0.451915     16.456070
     0.180180      0.452101     16.458018
     0.184184      0.452292     16.460010
     0.188188      0.452486     16.462047
     0.192192      0.452685     16.464128
     0.196196      0.452888     16.466253
     0.200200      0.453096     16.468423
     0.204204      0.453308     16.470638
     0.208208      0.453524     16.472897
     0.212212      0.453744     16.475201
     0.216216      0.453969     16.477550
     0.220220      0.454198     16.479943
     0.224224      0.454432     16.482381
     0.228228      0.454669     16.484864
     0.232232      0.454912     16.487392
     0.236236      0.455158     16.489965
     0.240240      0.455409     16.492583
     0.244244      0.455665     16.495245
     0.248248      0.455924     16.497953
     0.252252      0.456189     16.500706
     0.256256      0.456457     16.503505
     0.260260      0.456730     16.506348
     0.264264      0.457008     16.509237
     0.268268      0.457290     16.512172
     0.272272      0.457576     16.515151
     0.276276      0.457867     16.518177
     0.280280      0.458163     16.521247
     0.284284      0.458463     16.524364
     0.288288      0.458767     16.527526
     0.292292      0.459076     16.530734
     0.296296      0.459389     16.533987
     0.300300      0.459707     16.537287
     0.304304      0.460030     16.540632
     0.308308      0.460357     16.544024
     0.312312      0.460689     16.547461
     0.316316      0.461025     16.550945
     0.320320      0.461366     16.554475
     0.324324      0.461711     16.558051
     0.328328      0.462061     16.561674
     0.332332      0.462416     16.565343
     0.336336      0.462775     16.569059
     0.340340      0.463139     16.572821
     0.344344      0.463508     16.576630
     0.348348      0.463882     16.580485
     0.352352      0.464260     16.584388
     0.356356      0.464643     16.588337
     0.360360      0.465030     16.592333
     0.364364      0.465422     16.596377
     0.368368      0.465820     16.600467
     0.372372      0.466221     16.604605
     0.376376      0.466628     16.608790
     0.380380      0.467039     16.613022
     0.384384      0.467456     16.617302
     0.388388      0.467877     16.621630
     0.392392      0.468303     16.626005
     0.396396      0.468734     16.630428
     0.400400      0.469169     16.634899
     0.404404      0.469610     16.639418
     0.408408      0.470055     16.643985
     0.412412      0.470506     16.648600
     0.416416      0.470961     16.653263
     0.420420      0.471422     16.657974
     0.424424      0.471887     16.662734
     0.428428      0.472357     16.667543
     0.432432      0.472833     16.672400
     0.436436      0.473313     16.677306
     0.440440      0.473799     16.682260
     0.444444      0.474289     16.687264
     0.448448      0.474785     16.692316
     0.452452      0.475286     16.697418
     0.456456      0.475791     16.702569
     0.460460      0.476303     16.707770
     0.464464      0.476819     16.713020
     0.468468      0.477340     16.718319
     0.472472      0.477867     16.723668
     0.476476      0.478399     16.729067
     0.480480      0.478936     16.734516
     0.484484      0.479478     16.740015
     0.488488      0.480026     16.745564
     0.492492      0.480579     16.751163
     0.496496      0.481137     16.756813
     0.500501      0.481701     16.762513
     0.504505      0.482270     16.768264
     0.508509      0.482844     16.774066
     0.512513      0.483424     16.779918
     0.516517      0.484009     16.785822
     0.520521      0.484600     16.791776
     0.524525      0.485196     16.797782
     0.528529      0.485798     16.803840
     0.532533      0.486405     16.809949
     0.536537      0.487018     16.816109
     0.540541      0.487637     16.822321
     0.544545      0.488261     16.828586
     0.548549      0.488890     16.834902
     0.552553      0.489526     16.841271
     0.556557      0.490167     16.847691
     0.560561      0.490814     16.854165
     0.564565      0.491466     16.860691
     0.568569      0.492124     16.867269
     0.572573      0.492789     16.873901
     0.576577      0.493458     16.880586
     0.580581      0.494134     16.887324
     0.584585      0.494816     16.894115
     0.588589      0.495503     16.900960
     0.592593      0.496197     16.907858
     0.596597      0.496896     16.914810
     0.600601      0.497602     16.921817
     0.604605      0.498313     16.928877
     0.608609      0.499030     16.935992
     0.612613      0.499754     16.943161
     0.616617      0.500484     16.950384
     0.620621      0.501219     16.957663
     0.624625      0.501961     16.964996
     0.628629      0.502709     16.972384
     0.632633      0.503464     16.979828
     0.636637      0.504224     16.987327
     0.640641      0.504991     16.994882
     0.644645      0.505765     17.002492
     0.648649      0.506544     17.010159
     0.652653      0.507330     17.017881
     0.656657      0.508123     17.025660
     0.660661      0.508921     17.033495
     0.664665      0.509727     17.041387
     0.668669      0.510539     17.049336
     0.672673      0.511357     17.057342
     0.676677      0.512182     17.065405
     0.680681      0.513014     17.073525
     0.684685      0.513852     17.081703
     0.688689      0.514697     17.089939
     0.692693      0.515549     17.098233
     0.696697      0.516407     17.106584
     0.700701      0.517272     17.114995
     0.704705      0.518145     17.123463
     0.708709      0.519024     17.131991
     0.712713      0.519910     17.140577
     0.716717      0.520803     17.149223
     0.720721      0.521703     17.157927
     0.724725      0.522610     17.166692
     0.728729      0.523524     17.175516
     0.732733      0.524445     17.184400
     0.736737      0.525373     17.193344
     0.740741      0.526309     17.202349
     0.744745      0.527252     17.211415
     0.748749      0.528202     17.220541
     0.752753      0.529159     17.229728
     0.756757      0.530124     17.238976
     0.760761      0.531096     17.248286
     0.764765      0.532076     17.257658
     0.768769      0.533063     17.267092
     0.772773      0.534058     17.276587
     0.776777      0.535060     17.286146
     0.780781      0.536070     17.295766
     0.784785      0.537088     17.305450
     0.788789      0.538114     17.315197
     0.792793      0.539147     17.325007
     0.796797      0.540188     17.334881
     0.800801      0.541237     17.344818
     0.804805      0.542294     17.354820
     0.808809      0.543359     17.364886
     0.812813      0.544432     17.375017
     0.816817      0.545513     17.385212
     0.820821      0.546602     17.395473
     0.824825      0.547699     17.405798
     0.828829      0.548805     17.416190
     0.832833      0.549918     17.426647
     0.836837      0.551041     17.437171
     0.840841      0.552171     17.447760
     0.844845      0.553310     17.458417
     0.848849      0.554458     17.469140
     0.852853      0.555614     17.479931
     0.856857      0.556779     17.490789
     0.860861      0.557952     17.501715
     0.864865      0.559134     17.512709
     0.868869      0.560325     17.523771
     0.872873      0.561525     17.534902
     0.876877      0.562734     17.546102
     0.880881      0.563951     17.557371
     0.884885      0.565178     17.568710
     0.888889      0.566414     17.580118
     0.892893      0.567659     17.591596
     0.896897      0.568913     17.603145
     0.900901      0.570177     17.614765
     0.904905      0.571449     17.626455
     0.908909      0.572732     17.638217
     0.912913      0.574023     17.650050
     0.916917      0.575325     17.661956
     0.920921      0.576636     17.673933
     0.924925      0.577956     17.685983
     0.928929      0.579286     17.698106
     0.932933      0.580627     17.710303
     0.936937      0.581977     17.722573
     0.940941      0.583337     17.734916
     0.944945      0.584707     17.747334
     0.948949      0.586087     17.759827
     0.952953      0.587477     17.772394
     0.956957      0.588877     17.785037
     0.960961      0.590288     17.797755
     0.964965      0.591710     17.810550
     0.968969      0.593141     17.823420
     0.972973      0.594584     17.836368
     0.976977      0.596036     17.849392
     0.980981      0.597500     17.862494
     0.984985      0.598974     17.875673
     0.988989      0.600460     17.888931
     0.992993      0.601956     17.902267
     0.996997      0.603463     17.915682
     1.001001      0.604982     17.929176
     1.005005      0.606511     17.942750
     1.009009      0.608052     17.956404
     1.013013      0.609604     17.970138
     1.017017      0.611168     17.983953
     1.021021      0.612743     17.997849
     1.025025      0.614330     18.011827
     1.029029      0.615929     18.025887
     1.033033      0.617539     18.040030
     1.037037      0.619161     18.054255
     1.041041      0.620796     18.068564
     1.045045      0.622442     18.082956
     1.049049      0.624101     18.097432
     1.053053      0.625772     18.111993
     1.057057      0.627455     18.126639
     1.061061      0.629151     18.141371
     1.065065      0.630859     18.156188
     1.069069      0.632581     18.171091
     1.073073      0.634315     18.186082
     1.077077      0.636061     18.201159
     1.081081      0.637821     18.216324
     1.085085      0.639594     18.231577
     1.089089      0.641380     18.246919
     1.093093      0.643180     18.262350
     1.097097      0.644993     18.277870
     1.101101      0.646819     18.293481
     1.105105      0.648659     18.309182
     1.109109      0.650513     18.324974
     1.113113      0.652381     18.340857
     1.117117      0.654263     18.356832
     1.121121      0.656159     18.372900
     1.125125      0.658069     18.389061
     1.129129      0.659993     18.405315
     1.133133      0.661932     18.421664
     1.137137      0.663886     18.438107
     1.141141      0.665854     18.454645
     1.145145      0.667838     18.471278
     1.149149      0.669836     18.488008
     1.153153      0.671849     18.504834
     1.157157      0.673878     18.521758
     1.161161      0.675922     18.538779
     1.165165      0.677981     18.555899
     1.169169      0.680057     18.573118
     1.173173      0.682148     18.590436
     1.177177      0.684254     18.607854
     1.181181      0.686377     18.625373
     1.185185      0.688517     18.642993
     1.189189      0.690672     18.660715
     1.193193      0.692844     18.678539
     1.197197      0.695033     18.696466
     1.201201      0.697239     18.714497
     1.205205      0.699461     18.732632
     1.209209      0.701701     18.750872
     1.213213      0.703958     18.769217
     1.217217      0.706232     18.787669
     1.221221      0.708524     18.806227
     1.225225      0.710834     18.824892
     1.229229      0.713162     18.843666
     1.233233      0.715508     18.862548
     1.237237      0.717872     18.881540
     1.241241      0.720254     18.900642
     1.245245      0.722655     18.919854
     1.249249      0.725075     18.939178
     1.253253      0.727514     18.958614
     1.257257      0.729972     18.978163
     1.261261      0.732449     18.997825
     1.265265      0.734946     19.017602
     1.269269      0.737462     19.037494
     1.273273      0.739999     19.057501
     1.277277      0.742555     19.077624
     1.281281      0.745132     19.097865
     1.285285      0.747729     19.118224
     1.289289      0.750347     19.138701
     1.293293      0.752985     19.159298
     1.297297      0.755645     19.180015
     1.301301      0.758326     19.200853
     1.305305      0.761029     19.221812
     1.309309      0.763753     19.242895
     1.313313      0.766499     19.264100
     1.317317      0.769268     19.285430
     1.321321      0.772058     19.306885
     1.325325      0.774872     19.328466
     1.329329      0.777708     19.350174
     1.333333      0.780567     19.372009
     1.337337      0.783449     19.393972
     1.341341      0.786355     19.416065
     1.345345      0.789285     19.438288
     1.349349      0.792239     19.460642
     1.353353      0.795217     19.483128
     1.357357      0.798219     19.505747
     1.361361      0.801247     19.528499
     1.365365      0.804299     19.551387
     1.369369      0.807376     19.574410
     1.373373      0.810480     19.597569
     1.377377      0.813609     19.620866
     1.381381      0.816764     19.644302
     1.385385      0.819945     19.667877
     1.389389      0.823153     19.691593
     1.393393      0.826388     19.715450
     1.397397      0.829651     19.739449
     1.401401      0.832941     19.763592
     1.405405      0.836258     19.787880
     1.409409      0.839604     19.812313
     1.413413      0.842978     19.836893
     1.417417      0.846381     19.861621
     1.421421      0.849813     19.886497
     1.425425      0.853275     19.911524
     1.429429      0.856766     19.936701
     1.433433      0.860287     19.962031
     1.437437      0.863839     19.987513
     1.441441      0.867421     20.013150
     1.445445      0.871034     20.038943
     1.449449      0.874679     20.064893
     1.453453      0.878356     20.091000
     1.457457      0.882064     20.117266
     1.461461      0.885806     20.143693
     1.465465      0.889580     20.170281
     1.469469      0.893387     20.197032
     1.473473      0.897228     20.223948
     1.477477      0.901103     20.251028
     1.481481      0.905012     20.278275
     1.485485      0.908956     20.305690
     1.489489      0.912936     20.333274
     1.493493      0.916951     20.361029
     1.497497      0.921002     20.388955
     1.501502      0.925090     20.417055
     1.505506      0.929214     20.445329
     1.509510      0.933376     20.473779
     1.513514      0.937576     20.502407
     1.517518      0.941814     20.531214
     1.521522      0.946091     20.560201
     1.525526      0.950406     20.589369
     1.529530      0.954762     20.618721
     1.533534      0.959158     20.648258
     1.537538      0.963594     20.677981
     1.541542      0.968072     20.707891
     1.545546      0.972591     20.737991
     1.549550      0.977153     20.768282
     1.553554      0.981757     20.798766
     1.557558      0.986404     20.829443
     1.561562      0.991096     20.860316
     1.565566      0.995831     20.891387
     1.569570      1.000612     20.922657
     1.573574      1.005438     20.954127
     1.577578      1.010310     20.985800
     1.581582      1.015228     21.017678
     1.585586      1.020194     21.049761
     1.589590      1.025208     21.082052
     1.593594      1.030270     21.114553
     1.597598      1.035382     21.147265
     1.601602      1.040543     21.180190
     1.605606      1.045754     21.213330
     1.609610      1.051017     21.246688
     1.613614      1.056331     21.280264
     1.617618      1.061698     21.314062
     1.621622      1.067118     21.348082
     1.625626      1.072592     21.382327
     1.629630      1.078121     21.416800
     1.633634      1.083704     21.451501
     1.637638      1.089344     21.486433
     1.641642      1.095041     21.521599
     1.645646      1.100795     21.556999
     1.649650      1.106608     21.592638
     1.653654      1.112480     21.628516
     1.657658      1.118412     21.664636
     1.661662      1.124405     21.701000
     1.665666      1.130460     21.737611
     1.669670      1.136577     21.774470
     1.673674      1.142758     21.811581
     1.677678      1.149003     21.848945
     1.681682      1.155313     21.886565
     1.685686      1.161690     21.924444
     1.689690      1.168134     21.962584
     1.693694      1.174646     22.000987
     1.697698      1.181227     22.039656
     1.701702      1.187878     22.078593
     1.705706      1.194601     22.117802
     1.709710      1.201396     22.157285
     1.713714      1.208264     22.197045
     1.717718      1.215206     22.237084
     1.721722      1.222224     22.277405
     1.725726      1.229319     22.318011
     1.729730      1.236491     22.358905
     1.733734      1.243743     22.400089
     1.737738      1.251074     22.441568
     1.741742      1.258487     22.483343
     1.745746      1.265983     22.525418
     1.749750      1.273562     22.567795
     1.753754      1.281227     22.610479
     1.757758      1.288978     22.653472
     1.761762      1.296817     22.696777
     1.765766      1.304745     22.740398
     1.769770      1.312764     22.784339
     1.773774      1.320875     22.828601
     1.777778      1.329080     22.873189
     1.781782      1.337379     22.918107
     1.785786      1.345775     22.963357
     1.789790      1.354270     23.008944
     1.793794      1.362864     23.054871
     1.797798      1.371559     23.101141
     1.801802      1.380357     23.147759
     1.805806      1.389260     23.194729
     1.809810      1.398270     23.242054
     1.813814      1.407388     23.289738
     1.817818      1.416616     23.337785
     1.821822      1.425955     23.386199
     1.825826      1.435409     23.434985
     1.829830      1.444978     23.484146
     1.833834      1.454664     23.533688
     1.837838      1.464471     23.583613
     1.841842      1.474399     23.633927
     1.845846      1.484451     23.684634
     1.849850      1.494629     23.735739
     1.853854      1.504935     23.787246
     1.857858      1.515371     23.839160
     1.861862      1.525941     23.891486
     1.865866      1.536645     23.944229
     1.869870      1.547487     23.997393
     1.873874      1.558469     24.050984
     1.877878      1.569594     24.105006
     1.881882      1.580863     24.159466
     1.885886      1.592280     24.214368
     1.889890      1.603848     24.269717
     1.893894      1.615569     24.325520
     1.897898      1.627446     24.381781
     1.901902      1.639483     24.438507
     1.905906      1.651681     24.495703
     1.909910      1.664044     24.553375
     1.913914      1.676575     24.611529
     1.917918      1.689278     24.670171
     1.921922      1.702155     24.729308
     1.925926      1.715210     24.788945
     1.929930      1.728447     24.849089
     1.933934      1.741869     24.909747
     1.937938      1.755480     24.970925
     1.941942      1.769282     25.032630
     1.945946      1.783281     25.094869
     1.949950      1.797480     25.157649
     1.953954      1.811884     25.220977
     1.957958      1.826495     25.284860
     1.961962      1.841319     25.349306
     1.965966      1.856359     25.414323
     1.969970      1.871621     25.479918
     1.973974      1.887109     25.546099
     1.977978      1.902827     25.612874
     1.981982      1.918781     25.680251
     1.985986      1.934975     25.748238
     1.989990      1.951414     25.816845
     1.993994      1.968104     25.886079
     1.997998      1.985050     25.955950
     2.002002      2.002257     26.026466
     2.006006      2.019732     26.097636
     2.010010      2.037480     26.169471
     2.014014      2.055506     26.241979
     2.018018      2.073818     26.315170
     2.022022      2.092422     26.389055
     2.026026      2.111323     26.463642
     2.030030      2.130530     26.538944
     2.034034      2.150048     26.614969
     2.038038      2.169885     26.691729
     2.042042      2.190048     26.769235
     2.046046      2.210545     26.847498
     2.050050      2.231384     26.926530
     2.054054      2.252572     27.006341
     2.058058      2.274118     27.086945
     2.062062      2.296031     27.168353
     2.066066      2.318318     27.250577
     2.070070      2.340990     27.333631
     2.074074      2.364055     27.417527
     2.078078      2.387523     27.502279
     2.082082      2.411404     27.587899
     2.086086      2.435709     27.674403
     2.090090      2.460447     27.761803
     2.094094      2.485630     27.850114
     2.098098      2.511269     27.939352
     2.102102      2.537376     28.029531
     2.106106      2.563962     28.120666
     2.110110      2.591040     28.212773
     2.114114      2.618624     28.305868
     2.118118      2.646725     28.399968
     2.122122      2.675358     28.495090
     2.126126      2.704537     28.591250
     2.130130      2.734277     28.688466
     2.134134      2.764593     28.786756
     2.138138      2.795500     28.886139
     2.142142      2.827016     28.986633
     2.146146      2.859155     29.088257
     2.150150      2.891937     29.191031
     2.154154      2.925379     29.294976
     2.158158      2.959500     29.400111
     2.162162      2.994318     29.506457
     2.166166      3.029855     29.614037
     2.170170      3.066132     29.722872
     2.174174      3.103168     29.832984
     2.178178      3.140988     29.944397
     2.182182      3.179615     30.057135
     2.186186      3.219072     30.171220
     2.190190      3.259385     30.286679
     2.194194      3.300579     30.403535
     2.198198      3.342682     30.521816
     2.202202      3.385722     30.641547
     2.206206      3.429729     30.762755
     2.210210      3.474732     30.885469
     2.214214      3.520763     31.009715
     2.218218      3.567856     31.135524
     2.222222      3.616044     31.262925
     2.226226      3.665364     31.391948
     2.230230      3.715852     31.522623
     2.234234      3.767548     31.654984
     2.238238      3.820491     31.789061
     2.242242      3.874724     31.924888
     2.246246      3.930290     32.062499
     2.250250      3.987237     32.201929
     2.254254      4.045611     32.343212
     2.258258      4.105462     32.486384
     2.262262      4.166844     32.631483
     2.266266      4.229809     32.778545
     2.270270      4.294416     32.927609
     2.274274      4.360723     33.078715
     2.278278      4.428794     33.231900
     2.282282      4.498693     33.387207
     2.286286      4.570488     33.544676
     2.290290      4.644252     33.704349
     2.294294      4.720059     33.866268
     2.298298      4.797987     34.030476
     2.302302      4.878118     34.197018
     2.306306      4.960540     34.365937
     2.310310      5.045342     34.537277
     2.314314      5.132619     34.711085
     2.318318      5.222470     34.887405
     2.322322      5.315001     35.066283
     2.326326      5.410321     35.247766
     2.330330      5.508546     35.431898
     2.334334      5.609795     35.618725
     2.338338      5.714198     35.808294
     2.342342      5.821888     36.000648
     2.346346      5.933006     36.195833
     2.350350      6.047700     36.393891
     2.354354      6.166126     36.594864
     2.358358      6.288448     36.798794
     2.362362      6.414840     37.005719
     2.366366      6.545482     37.215675
     2.370370      6.680566     37.428696
     2.374374      6.820293     37.644813
     2.378378      6.964876     37.864052
     2.382382      7.114538     38.086434
     2.386386      7.269513     38.311977
     2.390390      7.430049     38.540692
     2.394394      7.596405     38.772581
     2.398398      7.768854     39.007641
     2.402402      7.947683     39.245856
     2.406406      8.133193     39.487204
     2.410410      8.325699     39.731647
     2.414414      8.525532     39.979134
     2.418418      8.733037     40.229601
     2.422422      8.948577     40.482963
     2.426426      9.172526     40.739118
     2.430430      9.405277     40.997941
     2.434434      9.647235     41.259282
     2.438438      9.898822     41.522964
     2.442442     10.160470     41.788780
     2.446446     10.432624     42.056489
     2.450450     10.715737     42.325813
     2.454454     11.010270     42.596434
     2.458458     11.316688     42.867991
     2.462462     11.635455     43.140077
     2.466466     11.967030     43.412232
     2.470470     12.311862     43.683947
     2.474474     12.670383     43.954654
     2.478478     13.043000     44.223732
     2.482482     13.430086     44.490502
     2.486486     13.831971     44.754227
     2.490490     14.248934     45.014118
     2.494494     14.681187     45.269338
     2.498498     15.128869     45.519008
     2.502503     15.592033     45.762217
     2.506507     16.070636     45.998038
     2.510511     16.564533     46.225540
     2.514515     17.073468     46.443812
     2.518519     17.597079     46.651986
     2.522523     18.134897     46.849257
     2.526527     18.686358     47.034916
     2.530531     19.250824     47.208375
     2.534535     19.827602     47.369186
     2.538539     20.415986     47.517068
     2.542543     21.015293     47.651917
     2.546547     21.624916     47.773805
     2.550551     22.244369     47.882976
     2.554555     22.873349     47.979821
     2.558559     23.511777     48.064839
     2.562563     24.159849     48.138583
     2.566567     24.818059     48.201596
     2.570571     25.487222     48.254334
     2.574575     26.168468     48.297083
     2.578579     26.863219     48.329874
     2.582583     27.573150     48.352405
     2.586587     28.300122     48.363963
     2.590591     29.046111     48.363373
     2.594595     29.813112     48.348946
     2.598599     30.603043     48.318459
     2.602603     31.417633     48.269149
     2.606607     32.258325     48.197724
     2.610611     33.126161     48.100398
     2.614615     34.021690     47.972942
     2.618619     34.944873     47.810751
     2.622623     35.894999     47.608933
     2.626627     36.870618     47.362402
     2.630631     37.869481     47.065997
     2.634635     38.888506     46.714604
     2.638639     39.923755     46.303293
     2.642643     40.970440     45.827459
     2.646647     42.022945     45.282968
     2.650651     43.074886     44.666303
     2.654655     44.119189     43.974706
     2.658659     45.148199     43.206301
     2.662663     46.153814     42.360209
     2.666667     47.127642     41.436630
     2.670671     48.061178     40.436904
     2.674675     48.945984     39.363531
     2.678679     49.773886     38.220162
     2.682683     50.537155     37.011550
     2.686687     51.228684     35.743463
     2.690691     51.842138     34.422568
     2.694695     52.372083     33.056289
     2.698699     52.814075     31.652643
     2.702703     53.164715     30.220065
     2.706707     53.421670     28.767240
     2.710711     53.583648     27.302933
     2.714715     53.650355     25.835851
     2.718719     53.622427     24.374521
     2.722723     53.501345     22.927200
     2.726727     53.289358     21.501812
     2.730731     52.989406     20.105907
     2.734735     52.605067     18.746636
     2.738739     52.140512     17.430730
     2.742743     51.600478     16.164478
     2.746747     50.990250     14.953691
     2.750751     50.315649     13.803652
     2.754755     49.583003     12.719053
     2.758759     48.799107     11.703913
     2.762763     47.971166     10.761507
     2.766767     47.106700      9.894278
     2.770771     46.213440      9.103788
     2.774775     45.299200      8.390667
     2.778779     44.371733      7.754605
     2.782783     43.438596      7.194370
     2.786787     42.507008      6.707848
     2.790791     41.583731      6.292115
     2.794795     40.674967      5.943530
     2.798799     39.786270      5.657837
     2.802803     38.922492      5.430275
     2.806807     38.087740      5.255700
     2.810811     37.285361      5.128686
     2.814815     36.517941      5.043641
     2.818819     35.787311      4.994896
     2.822823     35.094575      4.976803
     2.826827     34.440133      4.983810
     2.830831     33.823716      5.010537
     2.834835     33.244423      5.051845
     2.838839     32.700760      5.102903
     2.842843     32.190685      5.159245
     2.846847     31.711654      5.216833
     2.850851     31.260677      5.272115
     2.854855     30.834381      5.322080
     2.858859     30.429084      5.364311
     2.862863     30.040878      5.397028
     2.866867     29.665725      5.419125
     2.870871     29.299564      5.430186
     2.874875     28.938424      5.430488
     2.878879     28.578541      5.420984
     2.882883     28.216481      5.403251
     2.886887     27.849242      5.379426
     2.890891     27.474352      5.352108
     2.894895     27.089941      5.324246
     2.898899     26.694791      5.299014
     2.902903     26.288346      5.279671
     2.906907     25.870708      5.269430
     2.910911     25.442583      5.271333
     2.914915     25.005221      5.288144
     2.918919     24.560325      5.322262
     2.922923     24.109953      5.375661
     2.926927     23.656410      5.449855
     2.930931     23.202148      5.545887
     2.934935     22.749669      5.664345
     2.938939     22.301439      5.805386
     2.942943     21.859826      5.968787
     2.946947     21.427037      6.153990
     2.950951     21.005087      6.360161
     2.954955     20.595773      6.586250
     2.958959     20.200663      6.831037
     2.962963     19.821096      7.093188
     2.966967     19.458192      7.371295
     2.970971     19.112861      7.663912
     2.974975     18.785826      7.969589
     2.978979     18.477638      8.286888
     2.982983     18.188704      8.614407
     2.986987     17.919300      8.950789
     2.990991     17.669598      9.294727
     2.994995     17.439679      9.644970
     2.998999     17.229555     10.000323
     3.003003     17.039179     10.359641
     3.007007     16.868459     10.721830
     3.011011     16.717269     11.085833
     3.015015     16.585456     11.450629
     3.019019     16.472844     11.815223
     3.023023     16.379240     12.178634
     3.027027     16.304435     12.539891
     3.031031     16.248200     12.898018
     3.035035     16.210287     13.252033
     3.039039     16.190419     13.600931
     3.043043     16.188289     13.943684
     3.047047     16.203542     14.279229
     3.051051     16.235772     14.606468
     3.055055     16.284501     14.924262
     3.059059     16.349167     15.231430
     3.063063     16.429106     15.526756
     3.067067     16.523529     15.808990
     3.071071     16.631508     16.076861
     3.075075     16.751950     16.329095
     3.079079     16.883581     16.564429
     3.083083     17.024923     16.781648
     3.087087     17.174286     16.979609
     3.091091     17.329753     17.157289
     3.095095     17.489182     17.313825
     3.099099     17.650208     17.448569
     3.103103     17.810266     17.561137
     3.107107     17.966619     17.651466
     3.111111     18.116407     17.719865
     3.115115     18.256701     17.767056
     3.119119     18.384582     17.794213
     3.123123     18.497221     17.802972
     3.127127     18.591975     17.795437
     3.131131     18.666479     17.774151
     3.135135     18.718740     17.742056
     3.139139     18.747215     17.702418
     3.143143     18.750880     17.658743
     3.147147     18.729271     17.614672
     3.151151     18.682504     17.573867
     3.155155     18.611263     17.539902
     3.159159     18.516771     17.516151
     3.163163     18.400723     17.505697
     3.167167     18.265219     17.511252
     3.171171     18.112665     17.535107
     3.175175     17.945687     17.579099
     3.179179     17.767030     17.644599
     3.183183     17.579475     17.732531
     3.187187     17.385755     17.843393
     3.191191     17.188494     17.977302
     3.195195     16.990156     18.134045
     3.199199     16.793005     18.313129
     3.203203     16.599083     18.513839
     3.207207     16.410200     18.735290
     3.211211     16.227934     18.976476
     3.215215     16.053631     19.236313
     3.219219     15.888425     19.513676
     3.223223     15.733252     19.807433
     3.227227     15.588868     20.116466
     3.231231     15.455870     20.439695
     3.235235     15.334718     20.776090
     3.239239     15.225752     21.124683
     3.243243     15.129214     21.484570
     3.247247     15.045264     21.854923
     3.251251     14.973997     22.234984
     3.255255     14.915453     22.624068
     3.259259     14.869635     23.021561
     3.263263     14.836517     23.426915
     3.267267     14.816053     23.839647
     3.271271     14.808187     24.259334
     3.275275     14.812857     24.685609
     3.279279     14.830003     25.118155
     3.283283     14.859573     25.556704
     3.287287     14.901525     26.001030
     3.291291     14.955828     26.450946
     3.295295     15.022473     26.906302
     3.299299     15.101466     27.366976
     3.303303     15.192836     27.832877
     3.307307     15.296636     28.303939
     3.311311     15.412944     28.780116
     3.315315     15.541861     29.261382
     3.319319     15.683520     29.747728
     3.323323     15.838079     30.239158
     3.327327     16.005726     30.735687
     3.331331     16.186682     31.237340
     3.335335     16.381198     31.744149
     3.339339     16.589557     32.256150
     3.343343     16.812078     32.773380
     3.347347     17.049113     33.295879
     3.351351     17.301051     33.823683
     3.355355     17.568318     34.356823
     3.359359     17.851381     34.895323
     3.363363     18.150744     35.439200
     3.367367     18.466954     35.988455
     3.371371     18.800601     36.543075
     3.375375     19.152319     37.103028
     3.379379     19.522790     37.668260
     3.383383     19.912740     38.238691
     3.387387     20.322947     38.814208
     3.391391     20.754239     39.394667
     3.395395     21.207497     39.979879
     3.399399     21.683652     40.569613
     3.403403     22.183694     41.163581
     3.407407     22.708664     41.761439
     3.411411     23.259661     42.362773
     3.415415     23.837838     42.967095
     3.419419     24.444404     43.573830
     3.423423     25.080619     44.182311
     3.427427     25.747797     44.791760
     3.431431     26.447295     45.401284
     3.435435     27.180516     46.009859
     3.439439     27.948896     46.616313
     3.443443     28.753898     47.219320
     3.447447     29.597002     47.817376
     3.451451     30.479687     48.408790
     3.455455     31.403421     48.991664
     3.459459     32.369635     49.563885
     3.463463     33.379700     50.123102
     3.467467     34.434901     50.666722
     3.471471     35.536404     51.191894
     3.475475     36.685216     51.695508
     3.479479     37.882148     52.174188
     3.483483     39.127764     52.624302
     3.487487     40.422336     53.041969
     3.491491     41.765792     53.423084
     3.495495     43.157662     53.763348
     3.499499     44.597027     54.058312
     3.503504     46.082473     54.303432
     3.507508     47.612051     54.494140
     3.511512     49.183249     54.625924
     3.515516     50.792976     54.694424
     3.519520     52.437568     54.695526
     3.523524     54.112817     54.625474
     3.527528     55.814019     54.480966
     3.531532     57.536056     54.259250
     3.535536     59.273493     53.958200
     3.539540     61.020698     53.576369
     3.543544     62.771979     53.113012
     3.547548     64.521721     52.568073
     3.551552     66.264514     51.942136
     3.555556     67.995275     51.236346
     3.559560     69.709324     50.452301
     3.563564     71.402444     49.591923
     3.567568     73.070883     48.657329
     3.571572     74.711335     47.650712
     3.575576     76.320868     46.574239
     3.579580     77.896852     45.429983
     3.583584     79.436853     44.219895
     3.587588     80.938555     42.945803
     3.591592     82.399681     41.609453
     3.595596     83.817954     40.212563
     3.599600     85.191085     38.756881
     3.603604     86.516790     37.244248
     3.607608     87.792840     35.676627
     3.611612     89.017111     34.056109
     3.615616     90.187648     32.384894
     3.619620     91.302703     30.665231
     3.623624     92.360751     28.899350
     3.627628     93.360475     27.089374
     3.631632     94.300714     25.237246
     3.635636     95.180375     23.344672
     3.639640     95.998328     21.413093
     3.643644     96.753290     19.443698
     3.647648     97.443700     17.437476
     3.651652     98.067629     15.395310
     3.655656     98.622696     13.318101
     3.659660     99.106036     11.206911
     3.663664     99.514302      9.063133
     3.667668     99.843711      6.888646
      3.67167     100.09014       4.68597
      3.67568     100.24924       2.45841
      3.67968     100.31664       0.21012
      3.68368     100.28810      -2.05377
      3.68769     100.15974      -4.32720
     3.691692     99.928278     -6.603162
     3.695696     99.591229     -8.873799
     3.699700     99.147131    -11.130548
     3.703704     98.595716    -13.364316
     3.707708     97.938052    -15.565716
     3.711712     97.176636    -17.725336
     3.715716     96.315419    -19.834033
     3.719720     95.359762    -21.883234
     3.723724     94.316327    -23.865234
     3.727728     93.192886    -25.773462
     3.731732     91.998082    -27.602703
     3.735736     90.741122    -29.349259
     3.739740     89.431448    -31.011038
     3.743744     88.078387    -32.587558
     3.747748     86.690814    -34.079868
     3.751752     85.276832    -35.490391
     3.755756     83.843514    -36.822692
     3.759760     82.396694    -38.081199
     3.763764     80.940849    -39.270873
     3.767768     79.479050    -40.396872
     3.771772     78.013009    -41.464211
     3.775776     76.543201    -42.477450
     3.779780     75.069058    -43.440428
     3.783784     73.589222    -44.356052
     3.787788     72.101836    -45.226169
     3.791792     70.604859    -46.051508
     3.795796     69.096366    -46.831716
     3.799800     67.574836    -47.565465
     3.803804     66.039384    -48.250622
     3.807808     64.489940    -48.884481
     3.811812     62.927350    -49.464009
     3.815816     61.353412    -49.986117
     3.819820     59.770834    -50.447907
     3.823824     58.183138    -50.846898
     3.827828     56.594509    -51.181200
     3.831832     55.009624    -51.449642
     3.835836     53.433454    -51.651850
     3.839840     51.871073    -51.788260
     3.843844     50.327482    -51.860098
     3.847848     48.807454    -51.869318
     3.851852     47.315406    -51.818511
     3.855856     45.855304    -51.710798
     3.859860     44.430603    -51.549719
     3.863864     43.044208    -51.339118
     3.867868     41.698465    -51.083033
     3.871872     40.395171    -50.785597
     3.875876     39.135601    -50.450956
     3.879880     37.920540    -50.083191
     3.883884     36.750332    -49.686260
     3.887888     35.624923    -49.263954
     3.891892     34.543912    -48.819857
     3.895896     33.506600    -48.357324
     3.899900     32.512033    -47.879462
     3.903904     31.559049    -47.389117
     3.907908     30.646320    -46.888874
     3.911912     29.772386    -46.381053
     3.915916     28.935695    -45.867712
     3.919920     28.134635    -45.350655
     3.923924     27.367563    -44.831441
     3.927928     26.632836    -44.311393
     3.931932     25.928836    -43.791616
     3.935936     25.253990    -43.273015
     3.939940     24.606798    -42.756308
     3.943944     23.985842    -42.242056
     3.947948     23.389803    -41.730679
     3.951952     22.817472    -41.222484
     3.955956     22.267750    -40.717690
     3.959960     21.739649    -40.216447
     3.963964     21.232295    -39.718862
     3.967968     20.744912    -39.225016
     3.971972     20.276820    -38.734982
     3.975976     19.827417    -38.248840
     3.979980     19.396173    -37.766684
     3.983984     18.982614    -37.288628
     3.987988     18.586310    -36.814819
     3.991992     18.206863    -36.345426
     3.995996     17.843899    -35.880652
     4.000000     17.497059    -35.420726
# 
# 09/17/2019 at 14:41 YAMBO_RT @ Alejandro-4.local [start]
# 09/17/2019 at 14:41                              [end]
#
# .-Input file : ip-reference/01-ip-reference_ip-reference.in
# | optics                         # [R OPT] Optics
# | chi                            # [R CHI] Dyson equation for Chi.
# | BoseTemp= 0.000000     eV      # Bosonic Temperature
# | FFTGvecs= 229          RL      # [FFT] Plane-waves
# | Chimod= "IP"                   # [X] IP/Hartree/ALDA/LRC/PF/BSfxc
# | % QpntsRXd
# |  1 | 1 |                       # [Xd] Transferred momenta
# | %
# | % BndsRnXd
# |   2 |  7 |                     # [Xd] Polarization function bands
# | %
# | % EnRngeXd
# |  0.000000 | 4.000000 | eV      # [Xd] Energy range
# | %
# | % DmRngeXd
# |   0.10000 |  0.10000 | eV      # [Xd] Damping range
# | %
# | ETStpsXd= 1000                 # [Xd] Total Energy steps
# | % LongDrXd
# | 0.5774E-5 |0.5774E-5 |0.5774E-5 |        # [Xd] [cc] Electric Field
# | %
