#                                                           
# ooooo   oooo ..     ooo        ooo ooooooooo.    .oooo.   
#  `88.   .8" .88.    `88.       .88 `88"   `Y8b  dP"  `Yb  
#   `88. .8" .8"88.    888b     d"88  88     888 88      88 
#    `88.8" .8" `88.   8 Y88. .P  88  88oooo888" 88      88 
#     `88" .88ooo888.  8  `888"   88  88    `88b 88      88 
#      88 .8"     `88. 8    Y     88  88    .88P `8b    d8" 
#     o88o88o      888o8          88 o88bood8P"   `Ybod8P"  
#                                                           
#                                                           
# GPL Version 4.4.0 Revision 148. (Based on r.16920 h.961a8d
#                         MPI Build                         
#                 http://www.yambo-code.org                 
#
# Absorption @ Q(1) [q->0 direction] : 0.5773503  0.5773503  0.5773503
#
#
# - Energies      are Perdew, Burke & Ernzerhof(X)+Perdew, Burke & Ernzerhof(C)
# - Wavefunctions are Perdew, Burke & Ernzerhof(X)+Perdew, Burke & Ernzerhof(C)
#
# - The Green`s function is T-ordered -
# - Using the Length Gauge -
# - [r,Vnl] *is* included -
#
#    E/ev[1]       EPS-Im[2]     EPS-Re[3]     EPSo-Im[4]    EPSo-Re[5]
#
     0.000000      0.388844     15.117850      0.447893     16.413839
   0.40040E-2    0.38885        15.118       0.44789        16.414   
   0.80080E-2    0.38885        15.118       0.44790        16.414   
   0.12012E-1    0.38886        15.118       0.44791        16.414   
   0.16016E-1    0.38887        15.118       0.44793        16.414   
     0.020020      0.388889     15.118332      0.447944     16.414382
     0.024024      0.388909     15.118543      0.447967     16.414622
     0.028028      0.388932     15.118794      0.447994     16.414904
     0.032032      0.388959     15.119083      0.448025     16.415231
     0.036036      0.388990     15.119410      0.448060     16.415600
     0.040040      0.389024     15.119776      0.448099     16.416014
     0.044044      0.389062     15.120180      0.448143     16.416470
     0.048048      0.389104     15.120623      0.448190     16.416971
     0.052052      0.389149     15.121104      0.448242     16.417515
     0.056056      0.389197     15.121624      0.448298     16.418102
     0.060060      0.389250     15.122183      0.448358     16.418733
     0.064064      0.389306     15.122780      0.448422     16.419408
     0.068068      0.389365     15.123416      0.448490     16.420126
     0.072072      0.389428     15.124090      0.448563     16.420888
     0.076076      0.389495     15.124803      0.448639     16.421693
     0.080080      0.389565     15.125555      0.448720     16.422542
     0.084084      0.389639     15.126345      0.448805     16.423435
     0.088088      0.389717     15.127174      0.448894     16.424372
     0.092092      0.389798     15.128042      0.448987     16.425352
     0.096096      0.389883     15.128948      0.449085     16.426376
     0.100100      0.389972     15.129893      0.449186     16.427443
     0.104104      0.390064     15.130877      0.449292     16.428554
     0.108108      0.390160     15.131900      0.449402     16.429710
     0.112112      0.390259     15.132961      0.449516     16.430908
     0.116116      0.390363     15.134061      0.449634     16.432151
     0.120120      0.390469     15.135200      0.449757     16.433438
     0.124124      0.390580     15.136378      0.449884     16.434768
     0.128128      0.390694     15.137594      0.450015     16.436143
     0.132132      0.390812     15.138850      0.450150     16.437561
     0.136136      0.390933     15.140144      0.450289     16.439023
     0.140140      0.391058     15.141477      0.450433     16.440529
     0.144144      0.391187     15.142850      0.450580     16.442080
     0.148148      0.391320     15.144261      0.450732     16.443674
     0.152152      0.391456     15.145711      0.450889     16.445312
     0.156156      0.391596     15.147200      0.451049     16.446995
     0.160160      0.391739     15.148729      0.451214     16.448721
     0.164164      0.391886     15.150296      0.451383     16.450492
     0.168168      0.392037     15.151903      0.451556     16.452307
     0.172172      0.392192     15.153549      0.451734     16.454166
     0.176176      0.392351     15.155234      0.451915     16.456070
     0.180180      0.392513     15.156958      0.452101     16.458018
     0.184184      0.392678     15.158721      0.452292     16.460010
     0.188188      0.392848     15.160524      0.452486     16.462047
     0.192192      0.393021     15.162366      0.452685     16.464128
     0.196196      0.393199     15.164247      0.452888     16.466253
     0.200200      0.393379     15.166168      0.453096     16.468423
     0.204204      0.393564     15.168128      0.453308     16.470638
     0.208208      0.393752     15.170128      0.453524     16.472897
     0.212212      0.393944     15.172167      0.453744     16.475201
     0.216216      0.394140     15.174246      0.453969     16.477550
     0.220220      0.394340     15.176365      0.454198     16.479943
     0.224224      0.394544     15.178523      0.454432     16.482381
     0.228228      0.394751     15.180720      0.454669     16.484864
     0.232232      0.394962     15.182958      0.454912     16.487392
     0.236236      0.395177     15.185235      0.455158     16.489965
     0.240240      0.395396     15.187552      0.455409     16.492583
     0.244244      0.395618     15.189909      0.455665     16.495245
     0.248248      0.395845     15.192306      0.455924     16.497953
     0.252252      0.396075     15.194743      0.456189     16.500706
     0.256256      0.396309     15.197219      0.456457     16.503505
     0.260260      0.396547     15.199736      0.456730     16.506348
     0.264264      0.396789     15.202293      0.457008     16.509237
     0.268268      0.397035     15.204890      0.457290     16.512172
     0.272272      0.397284     15.207527      0.457576     16.515151
     0.276276      0.397538     15.210205      0.457867     16.518177
     0.280280      0.397795     15.212923      0.458163     16.521247
     0.284284      0.398057     15.215681      0.458463     16.524364
     0.288288      0.398322     15.218479      0.458767     16.527526
     0.292292      0.398591     15.221319      0.459076     16.530734
     0.296296      0.398864     15.224198      0.459389     16.533987
     0.300300      0.399142     15.227118      0.459707     16.537287
     0.304304      0.399423     15.230079      0.460030     16.540632
     0.308308      0.399708     15.233081      0.460357     16.544024
     0.312312      0.399997     15.236123      0.460689     16.547461
     0.316316      0.400290     15.239206      0.461025     16.550945
     0.320320      0.400587     15.242330      0.461366     16.554475
     0.324324      0.400888     15.245495      0.461711     16.558051
     0.328328      0.401193     15.248701      0.462061     16.561674
     0.332332      0.401502     15.251948      0.462416     16.565343
     0.336336      0.401815     15.255236      0.462775     16.569059
     0.340340      0.402133     15.258566      0.463139     16.572821
     0.344344      0.402454     15.261937      0.463508     16.576630
     0.348348      0.402779     15.265349      0.463882     16.580485
     0.352352      0.403109     15.268802      0.464260     16.584388
     0.356356      0.403442     15.272297      0.464643     16.588337
     0.360360      0.403780     15.275833      0.465030     16.592333
     0.364364      0.404122     15.279412      0.465422     16.596377
     0.368368      0.404468     15.283031      0.465820     16.600467
     0.372372      0.404818     15.286693      0.466221     16.604605
     0.376376      0.405173     15.290396      0.466628     16.608790
     0.380380      0.405531     15.294142      0.467039     16.613022
     0.384384      0.405894     15.297929      0.467456     16.617302
     0.388388      0.406261     15.301758      0.467877     16.621630
     0.392392      0.406632     15.305630      0.468303     16.626005
     0.396396      0.407007     15.309544      0.468734     16.630428
     0.400400      0.407387     15.313500      0.469169     16.634899
     0.404404      0.407771     15.317498      0.469610     16.639418
     0.408408      0.408159     15.321539      0.470055     16.643985
     0.412412      0.408552     15.325623      0.470506     16.648600
     0.416416      0.408949     15.329749      0.470961     16.653263
     0.420420      0.409350     15.333918      0.471422     16.657974
     0.424424      0.409755     15.338130      0.471887     16.662734
     0.428428      0.410165     15.342384      0.472357     16.667543
     0.432432      0.410579     15.346682      0.472833     16.672400
     0.436436      0.410998     15.351022      0.473313     16.677306
     0.440440      0.411421     15.355406      0.473799     16.682260
     0.444444      0.411848     15.359833      0.474289     16.687264
     0.448448      0.412280     15.364304      0.474785     16.692316
     0.452452      0.412717     15.368818      0.475286     16.697418
     0.456456      0.413157     15.373375      0.475791     16.702569
     0.460460      0.413603     15.377976      0.476303     16.707770
     0.464464      0.414052     15.382621      0.476819     16.713020
     0.468468      0.414507     15.387309      0.477340     16.718319
     0.472472      0.414966     15.392042      0.477867     16.723668
     0.476476      0.415429     15.396818      0.478399     16.729067
     0.480480      0.415897     15.401639      0.478936     16.734516
     0.484484      0.416369     15.406504      0.479478     16.740015
     0.488488      0.416847     15.411413      0.480026     16.745564
     0.492492      0.417328     15.416367      0.480579     16.751163
     0.496496      0.417815     15.421365      0.481137     16.756813
     0.500501      0.418306     15.426408      0.481701     16.762513
     0.504505      0.418802     15.431495      0.482270     16.768264
     0.508509      0.419302     15.436627      0.482844     16.774066
     0.512513      0.419807     15.441805      0.483424     16.779918
     0.516517      0.420317     15.447027      0.484009     16.785822
     0.520521      0.420832     15.452295      0.484600     16.791776
     0.524525      0.421351     15.457607      0.485196     16.797782
     0.528529      0.421876     15.462966      0.485798     16.803840
     0.532533      0.422405     15.468370      0.486405     16.809949
     0.536537      0.422939     15.473819      0.487018     16.816109
     0.540541      0.423478     15.479314      0.487637     16.822321
     0.544545      0.424021     15.484855      0.488261     16.828586
     0.548549      0.424570     15.490442      0.488890     16.834902
     0.552553      0.425123     15.496075      0.489526     16.841271
     0.556557      0.425682     15.501755      0.490167     16.847691
     0.560561      0.426245     15.507480      0.490814     16.854165
     0.564565      0.426814     15.513253      0.491466     16.860691
     0.568569      0.427387     15.519071      0.492124     16.867269
     0.572573      0.427966     15.524937      0.492789     16.873901
     0.576577      0.428549     15.530849      0.493458     16.880586
     0.580581      0.429138     15.536809      0.494134     16.887324
     0.584585      0.429732     15.542815      0.494816     16.894115
     0.588589      0.430331     15.548869      0.495503     16.900960
     0.592593      0.430935     15.554970      0.496197     16.907858
     0.596597      0.431544     15.561118      0.496896     16.914810
     0.600601      0.432158     15.567315      0.497602     16.921817
     0.604605      0.432778     15.573559      0.498313     16.928877
     0.608609      0.433403     15.579851      0.499030     16.935992
     0.612613      0.434033     15.586191      0.499754     16.943161
     0.616617      0.434669     15.592579      0.500484     16.950384
     0.620621      0.435310     15.599015      0.501219     16.957663
     0.624625      0.435956     15.605501      0.501961     16.964996
     0.628629      0.436608     15.612034      0.502709     16.972384
     0.632633      0.437265     15.618617      0.503464     16.979828
     0.636637      0.437927     15.625248      0.504224     16.987327
     0.640641      0.438595     15.631929      0.504991     16.994882
     0.644645      0.439269     15.638658      0.505765     17.002492
     0.648649      0.439948     15.645437      0.506544     17.010159
     0.652653      0.440632     15.652266      0.507330     17.017881
     0.656657      0.441322     15.659144      0.508123     17.025660
     0.660661      0.442018     15.666072      0.508921     17.033495
     0.664665      0.442720     15.673050      0.509727     17.041387
     0.668669      0.443427     15.680078      0.510539     17.049336
     0.672673      0.444140     15.687157      0.511357     17.057342
     0.676677      0.444858     15.694286      0.512182     17.065405
     0.680681      0.445582     15.701466      0.513014     17.073525
     0.684685      0.446312     15.708696      0.513852     17.081703
     0.688689      0.447048     15.715977      0.514697     17.089939
     0.692693      0.447790     15.723310      0.515549     17.098233
     0.696697      0.448538     15.730694      0.516407     17.106584
     0.700701      0.449291     15.738129      0.517272     17.114995
     0.704705      0.450051     15.745616      0.518145     17.123463
     0.708709      0.450816     15.753155      0.519024     17.131991
     0.712713      0.451588     15.760745      0.519910     17.140577
     0.716717      0.452366     15.768388      0.520803     17.149223
     0.720721      0.453149     15.776083      0.521703     17.157927
     0.724725      0.453939     15.783831      0.522610     17.166692
     0.728729      0.454735     15.791632      0.523524     17.175516
     0.732733      0.455537     15.799485      0.524445     17.184400
     0.736737      0.456346     15.807391      0.525373     17.193344
     0.740741      0.457160     15.815351      0.526309     17.202349
     0.744745      0.457981     15.823364      0.527252     17.211415
     0.748749      0.458809     15.831431      0.528202     17.220541
     0.752753      0.459643     15.839551      0.529159     17.229728
     0.756757      0.460483     15.847726      0.530124     17.238976
     0.760761      0.461329     15.855955      0.531096     17.248286
     0.764765      0.462182     15.864238      0.532076     17.257658
     0.768769      0.463042     15.872576      0.533063     17.267092
     0.772773      0.463908     15.880968      0.534058     17.276587
     0.776777      0.464781     15.889416      0.535060     17.286146
     0.780781      0.465660     15.897919      0.536070     17.295766
     0.784785      0.466546     15.906477      0.537088     17.305450
     0.788789      0.467439     15.915091      0.538114     17.315197
     0.792793      0.468339     15.923761      0.539147     17.325007
     0.796797      0.469245     15.932486      0.540188     17.334881
     0.800801      0.470158     15.941268      0.541237     17.344818
     0.804805      0.471079     15.950107      0.542294     17.354820
     0.808809      0.472006     15.959002      0.543359     17.364886
     0.812813      0.472940     15.967954      0.544432     17.375017
     0.816817      0.473881     15.976963      0.545513     17.385212
     0.820821      0.474829     15.986030      0.546602     17.395473
     0.824825      0.475784     15.995154      0.547699     17.405798
     0.828829      0.476747     16.004336      0.548805     17.416190
     0.832833      0.477716     16.013576      0.549918     17.426647
     0.836837      0.478693     16.022874      0.551041     17.437171
     0.840841      0.479678     16.032231      0.552171     17.447760
     0.844845      0.480669     16.041646      0.553310     17.458417
     0.848849      0.481668     16.051120      0.554458     17.469140
     0.852853      0.482674     16.060654      0.555614     17.479931
     0.856857      0.483688     16.070247      0.556779     17.490789
     0.860861      0.484710     16.079900      0.557952     17.501715
     0.864865      0.485739     16.089612      0.559134     17.512709
     0.868869      0.486775     16.099385      0.560325     17.523771
     0.872873      0.487820     16.109218      0.561525     17.534902
     0.876877      0.488872     16.119112      0.562734     17.546102
     0.880881      0.489932     16.129067      0.563951     17.557371
     0.884885      0.490999     16.139083      0.565178     17.568710
     0.888889      0.492075     16.149161      0.566414     17.580118
     0.892893      0.493159     16.159300      0.567659     17.591596
     0.896897      0.494250     16.169501      0.568913     17.603145
     0.900901      0.495350     16.179765      0.570177     17.614765
     0.904905      0.496458     16.190090      0.571449     17.626455
     0.908909      0.497574     16.200479      0.572732     17.638217
     0.912913      0.498698     16.210931      0.574023     17.650050
     0.916917      0.499830     16.221446      0.575325     17.661956
     0.920921      0.500971     16.232024      0.576636     17.673933
     0.924925      0.502120     16.242667      0.577956     17.685983
     0.928929      0.503278     16.253374      0.579286     17.698106
     0.932933      0.504444     16.264145      0.580627     17.710303
     0.936937      0.505619     16.274981      0.581977     17.722573
     0.940941      0.506803     16.285881      0.583337     17.734916
     0.944945      0.507995     16.296848      0.584707     17.747334
     0.948949      0.509196     16.307879      0.586087     17.759827
     0.952953      0.510405     16.318977      0.587477     17.772394
     0.956957      0.511624     16.330141      0.588877     17.785037
     0.960961      0.512852     16.341371      0.590288     17.797755
     0.964965      0.514088     16.352669      0.591710     17.810550
     0.968969      0.515334     16.364033      0.593141     17.823420
     0.972973      0.516589     16.375465      0.594584     17.836368
     0.976977      0.517853     16.386964      0.596036     17.849392
     0.980981      0.519126     16.398532      0.597500     17.862494
     0.984985      0.520409     16.410168      0.598974     17.875673
     0.988989      0.521701     16.421873      0.600460     17.888931
     0.992993      0.523003     16.433646      0.601956     17.902267
     0.996997      0.524315     16.445490      0.603463     17.915682
     1.001001      0.525635     16.457402      0.604982     17.929176
     1.005005      0.526966     16.469385      0.606511     17.942750
     1.009009      0.528307     16.481438      0.608052     17.956404
     1.013013      0.529657     16.493562      0.609604     17.970138
     1.017017      0.531017     16.505757      0.611168     17.983953
     1.021021      0.532388     16.518024      0.612743     17.997849
     1.025025      0.533768     16.530362      0.614330     18.011827
     1.029029      0.535159     16.542772      0.615929     18.025887
     1.033033      0.536559     16.555255      0.617539     18.040030
     1.037037      0.537971     16.567810      0.619161     18.054255
     1.041041      0.539392     16.580439      0.620796     18.068564
     1.045045      0.540824     16.593141      0.622442     18.082956
     1.049049      0.542267     16.605918      0.624101     18.097432
     1.053053      0.543720     16.618768      0.625772     18.111993
     1.057057      0.545185     16.631693      0.627455     18.126639
     1.061061      0.546659     16.644693      0.629151     18.141371
     1.065065      0.548145     16.657769      0.630859     18.156188
     1.069069      0.549642     16.670921      0.632581     18.171091
     1.073073      0.551150     16.684148      0.634315     18.186082
     1.077077      0.552669     16.697452      0.636061     18.201159
     1.081081      0.554200     16.710834      0.637821     18.216324
     1.085085      0.555742     16.724293      0.639594     18.231577
     1.089089      0.557295     16.737829      0.641380     18.246919
     1.093093      0.558860     16.751444      0.643180     18.262350
     1.097097      0.560436     16.765137      0.644993     18.277870
     1.101101      0.562024     16.778910      0.646819     18.293481
     1.105105      0.563624     16.792762      0.648659     18.309182
     1.109109      0.565236     16.806693      0.650513     18.324974
     1.113113      0.566860     16.820705      0.652381     18.340857
     1.117117      0.568497     16.834798      0.654263     18.356832
     1.121121      0.570145     16.848973      0.656159     18.372900
     1.125125      0.571806     16.863228      0.658069     18.389061
     1.129129      0.573479     16.877566      0.659993     18.405315
     1.133133      0.575165     16.891986      0.661932     18.421664
     1.137137      0.576863     16.906490      0.663886     18.438107
     1.141141      0.578575     16.921077      0.665854     18.454645
     1.145145      0.580299     16.935747      0.667838     18.471278
     1.149149      0.582036     16.950502      0.669836     18.488008
     1.153153      0.583786     16.965342      0.671849     18.504834
     1.157157      0.585550     16.980268      0.673878     18.521758
     1.161161      0.587326     16.995279      0.675922     18.538779
     1.165165      0.589117     17.010376      0.677981     18.555899
     1.169169      0.590920     17.025560      0.680057     18.573118
     1.173173      0.592738     17.040832      0.682148     18.590436
     1.177177      0.594569     17.056191      0.684254     18.607854
     1.181181      0.596415     17.071638      0.686377     18.625373
     1.185185      0.598274     17.087175      0.688517     18.642993
     1.189189      0.600147     17.102800      0.690672     18.660715
     1.193193      0.602035     17.118516      0.692844     18.678539
     1.197197      0.603937     17.134321      0.695033     18.696466
     1.201201      0.605854     17.150218      0.697239     18.714497
     1.205205      0.607786     17.166206      0.699461     18.732632
     1.209209      0.609732     17.182286      0.701701     18.750872
     1.213213      0.611693     17.198458      0.703958     18.769217
     1.217217      0.613669     17.214724      0.706232     18.787669
     1.221221      0.615661     17.231083      0.708524     18.806227
     1.225225      0.617668     17.247536      0.710834     18.824892
     1.229229      0.619691     17.264084      0.713162     18.843666
     1.233233      0.621729     17.280727      0.715508     18.862548
     1.237237      0.623783     17.297467      0.717872     18.881540
     1.241241      0.625853     17.314302      0.720254     18.900642
     1.245245      0.627939     17.331235      0.722655     18.919854
     1.249249      0.630041     17.348265      0.725075     18.939178
     1.253253      0.632160     17.365394      0.727514     18.958614
     1.257257      0.634295     17.382621      0.729972     18.978163
     1.261261      0.636447     17.399948      0.732449     18.997825
     1.265265      0.638616     17.417375      0.734946     19.017602
     1.269269      0.640802     17.434903      0.737462     19.037494
     1.273273      0.643005     17.452532      0.739999     19.057501
     1.277277      0.645225     17.470263      0.742555     19.077624
     1.281281      0.647463     17.488097      0.745132     19.097865
     1.285285      0.649719     17.506034      0.747729     19.118224
     1.289289      0.651993     17.524075      0.750347     19.138701
     1.293293      0.654284     17.542220      0.752985     19.159298
     1.297297      0.656594     17.560471      0.755645     19.180015
     1.301301      0.658923     17.578828      0.758326     19.200853
     1.305305      0.661270     17.597291      0.761029     19.221812
     1.309309      0.663635     17.615862      0.763753     19.242895
     1.313313      0.666020     17.634541      0.766499     19.264100
     1.317317      0.668424     17.653328      0.769268     19.285430
     1.321321      0.670847     17.672225      0.772058     19.306885
     1.325325      0.673290     17.691232      0.774872     19.328466
     1.329329      0.675752     17.710351      0.777708     19.350174
     1.333333      0.678234     17.729580      0.780567     19.372009
     1.337337      0.680737     17.748923      0.783449     19.393972
     1.341341      0.683260     17.768378      0.786355     19.416065
     1.345345      0.685803     17.787947      0.789285     19.438288
     1.349349      0.688367     17.807631      0.792239     19.460642
     1.353353      0.690952     17.827431      0.795217     19.483128
     1.357357      0.693558     17.847346      0.798219     19.505747
     1.361361      0.696186     17.867379      0.801247     19.528499
     1.365365      0.698835     17.887530      0.804299     19.551387
     1.369369      0.701507     17.907799      0.807376     19.574410
     1.373373      0.704200     17.928188      0.810480     19.597569
     1.377377      0.706915     17.948697      0.813609     19.620866
     1.381381      0.709653     17.969327      0.816764     19.644302
     1.385385      0.712414     17.990080      0.819945     19.667877
     1.389389      0.715198     18.010955      0.823153     19.691593
     1.393393      0.718005     18.031954      0.826388     19.715450
     1.397397      0.720836     18.053077      0.829651     19.739449
     1.401401      0.723691     18.074326      0.832941     19.763592
     1.405405      0.726569     18.095702      0.836258     19.787880
     1.409409      0.729472     18.117204      0.839604     19.812313
     1.413413      0.732399     18.138835      0.842978     19.836893
     1.417417      0.735351     18.160595      0.846381     19.861621
     1.421421      0.738329     18.182485      0.849813     19.886497
     1.425425      0.741331     18.204506      0.853275     19.911524
     1.429429      0.744360     18.226660      0.856766     19.936701
     1.433433      0.747414     18.248946      0.860287     19.962031
     1.437437      0.750494     18.271366      0.863839     19.987513
     1.441441      0.753601     18.293920      0.867421     20.013150
     1.445445      0.756735     18.316611      0.871034     20.038943
     1.449449      0.759896     18.339439      0.874679     20.064893
     1.453453      0.763084     18.362405      0.878356     20.091000
     1.457457      0.766300     18.385509      0.882064     20.117266
     1.461461      0.769544     18.408754      0.885806     20.143693
     1.465465      0.772817     18.432140      0.889580     20.170281
     1.469469      0.776118     18.455668      0.893387     20.197032
     1.473473      0.779448     18.479339      0.897228     20.223948
     1.477477      0.782807     18.503155      0.901103     20.251028
     1.481481      0.786196     18.527116      0.905012     20.278275
     1.485485      0.789615     18.551223      0.908956     20.305690
     1.489489      0.793065     18.575479      0.912936     20.333274
     1.493493      0.796545     18.599883      0.916951     20.361029
     1.497497      0.800056     18.624437      0.921002     20.388955
     1.501502      0.803599     18.649143      0.925090     20.417055
     1.505506      0.807173     18.674000      0.929214     20.445329
     1.509510      0.810780     18.699012      0.933376     20.473779
     1.513514      0.814419     18.724178      0.937576     20.502407
     1.517518      0.818092     18.749501      0.941814     20.531214
     1.521522      0.821797     18.774980      0.946091     20.560201
     1.525526      0.825537     18.800618      0.950406     20.589369
     1.529530      0.829310     18.826417      0.954762     20.618721
     1.533534      0.833119     18.852376      0.959158     20.648258
     1.537538      0.836962     18.878497      0.963594     20.677981
     1.541542      0.840841     18.904783      0.968072     20.707891
     1.545546      0.844755     18.931234      0.972591     20.737991
     1.549550      0.848706     18.957851      0.977153     20.768282
     1.553554      0.852694     18.984636      0.981757     20.798766
     1.557558      0.856718     19.011590      0.986404     20.829443
     1.561562      0.860781     19.038715      0.991096     20.860316
     1.565566      0.864882     19.066011      0.995831     20.891387
     1.569570      0.869021     19.093482      1.000612     20.922657
     1.573574      0.873199     19.121127      1.005438     20.954127
     1.577578      0.877417     19.148949      1.010310     20.985800
     1.581582      0.881676     19.176949      1.015228     21.017678
     1.585586      0.885974     19.205129      1.020194     21.049761
     1.589590      0.890314     19.233489      1.025208     21.082052
     1.593594      0.894696     19.262032      1.030270     21.114553
     1.597598      0.899120     19.290760      1.035382     21.147265
     1.601602      0.903587     19.319673      1.040543     21.180190
     1.605606      0.908097     19.348773      1.045754     21.213330
     1.609610      0.912651     19.378063      1.051017     21.246688
     1.613614      0.917249     19.407543      1.056331     21.280264
     1.617618      0.921893     19.437215      1.061698     21.314062
     1.621622      0.926582     19.467082      1.067118     21.348082
     1.625626      0.931317     19.497144      1.072592     21.382327
     1.629630      0.936099     19.527404      1.078121     21.416800
     1.633634      0.940929     19.557864      1.083704     21.451501
     1.637638      0.945807     19.588524      1.089344     21.486433
     1.641642      0.950734     19.619388      1.095041     21.521599
     1.645646      0.955710     19.650456      1.100795     21.556999
     1.649650      0.960736     19.681731      1.106608     21.592638
     1.653654      0.965814     19.713214      1.112480     21.628516
     1.657658      0.970942     19.744908      1.118412     21.664636
     1.661662      0.976123     19.776815      1.124405     21.701000
     1.665666      0.981357     19.808936      1.130460     21.737611
     1.669670      0.986645     19.841273      1.136577     21.774470
     1.673674      0.991987     19.873829      1.142758     21.811581
     1.677678      0.997384     19.906605      1.149003     21.848945
     1.681682      1.002837     19.939603      1.155313     21.886565
     1.685686      1.008347     19.972827      1.161690     21.924444
     1.689690      1.013915     20.006277      1.168134     21.962584
     1.693694      1.019541     20.039956      1.174646     22.000987
     1.697698      1.025226     20.073867      1.181227     22.039656
     1.701702      1.030972     20.108011      1.187878     22.078593
     1.705706      1.036778     20.142390      1.194601     22.117802
     1.709710      1.042646     20.177008      1.201396     22.157285
     1.713714      1.048577     20.211866      1.208264     22.197045
     1.717718      1.054572     20.246966      1.215206     22.237084
     1.721722      1.060631     20.282312      1.222224     22.277405
     1.725726      1.066756     20.317905      1.229319     22.318011
     1.729730      1.072948     20.353748      1.236491     22.358905
     1.733734      1.079207     20.389844      1.243743     22.400089
     1.737738      1.085534     20.426194      1.251074     22.441568
     1.741742      1.091931     20.462802      1.258487     22.483343
     1.745746      1.098399     20.499671      1.265983     22.525418
     1.749750      1.104939     20.536802      1.273562     22.567795
     1.753754      1.111551     20.574199      1.281227     22.610479
     1.757758      1.118238     20.611864      1.288978     22.653472
     1.761762      1.124999     20.649800      1.296817     22.696777
     1.765766      1.131837     20.688010      1.304745     22.740398
     1.769770      1.138752     20.726496      1.312764     22.784339
     1.773774      1.145746     20.765262      1.320875     22.828601
     1.777778      1.152819     20.804311      1.329080     22.873189
     1.781782      1.159974     20.843645      1.337379     22.918107
     1.785786      1.167211     20.883268      1.345775     22.963357
     1.789790      1.174532     20.923183      1.354270     23.008944
     1.793794      1.181938     20.963392      1.362864     23.054871
     1.797798      1.189431     21.003899      1.371559     23.101141
     1.801802      1.197011     21.044707      1.380357     23.147759
     1.805806      1.204681     21.085820      1.389260     23.194729
     1.809810      1.212441     21.127240      1.398270     23.242054
     1.813814      1.220294     21.168972      1.407388     23.289738
     1.817818      1.228240     21.211018      1.416616     23.337785
     1.821822      1.236282     21.253382      1.425955     23.386199
     1.825826      1.244420     21.296068      1.435409     23.434985
     1.829830      1.252657     21.339079      1.444978     23.484146
     1.833834      1.260994     21.382418      1.454664     23.533688
     1.837838      1.269433     21.426090      1.464471     23.583613
     1.841842      1.277976     21.470099      1.474399     23.633927
     1.845846      1.286624     21.514447      1.484451     23.684634
     1.849850      1.295379     21.559140      1.494629     23.735739
     1.853854      1.304243     21.604181      1.504935     23.787246
     1.857858      1.313218     21.649573      1.515371     23.839160
     1.861862      1.322306     21.695322      1.525941     23.891486
     1.865866      1.331509     21.741431      1.536645     23.944229
     1.869870      1.340829     21.787904      1.547487     23.997393
     1.873874      1.350267     21.834746      1.558469     24.050984
     1.877878      1.359826     21.881962      1.569594     24.105006
     1.881882      1.369509     21.929554      1.580863     24.159466
     1.885886      1.379317     21.977529      1.592280     24.214368
     1.889890      1.389253     22.025891      1.603848     24.269717
     1.893894      1.399318     22.074644      1.615569     24.325520
     1.897898      1.409516     22.123793      1.627446     24.381781
     1.901902      1.419849     22.173344      1.639483     24.438507
     1.905906      1.430319     22.223300      1.651681     24.495703
     1.909910      1.440929     22.273667      1.664044     24.553375
     1.913914      1.451681     22.324449      1.676575     24.611529
     1.917918      1.462578     22.375654      1.689278     24.670171
     1.921922      1.473624     22.427284      1.702155     24.729308
     1.925926      1.484819     22.479346      1.715210     24.788945
     1.929930      1.496169     22.531846      1.728447     24.849089
     1.933934      1.507675     22.584789      1.741869     24.909747
     1.937938      1.519340     22.638179      1.755480     24.970925
     1.941942      1.531168     22.692025      1.769282     25.032630
     1.945946      1.543161     22.746330      1.783281     25.094869
     1.949950      1.555324     22.801102      1.797480     25.157649
     1.953954      1.567659     22.856345      1.811884     25.220977
     1.957958      1.580170     22.912067      1.826495     25.284860
     1.961962      1.592860     22.968274      1.841319     25.349306
     1.965966      1.605732     23.024972      1.856359     25.414323
     1.969970      1.618792     23.082167      1.871621     25.479918
     1.973974      1.632042     23.139867      1.887109     25.546099
     1.977978      1.645486     23.198078      1.902827     25.612874
     1.981982      1.659128     23.256807      1.918781     25.680251
     1.985986      1.672973     23.316062      1.934975     25.748238
     1.989990      1.687024     23.375848      1.951414     25.816845
     1.993994      1.701286     23.436174      1.968104     25.886079
     1.997998      1.715763     23.497048      1.985050     25.955950
     2.002002      1.730460     23.558476      2.002257     26.026466
     2.006006      1.745382     23.620466      2.019732     26.097636
     2.010010      1.760533     23.683027      2.037480     26.169471
     2.014014      1.775919     23.746167      2.055506     26.241979
     2.018018      1.791544     23.809893      2.073818     26.315170
     2.022022      1.807414     23.874214      2.092422     26.389055
     2.026026      1.823533     23.939139      2.111323     26.463642
     2.030030      1.839909     24.004676      2.130530     26.538944
     2.034034      1.856545     24.070834      2.150048     26.614969
     2.038038      1.873449     24.137623      2.169885     26.691729
     2.042042      1.890626     24.205051      2.190048     26.769235
     2.046046      1.908082     24.273129      2.210545     26.847498
     2.050050      1.925824     24.341865      2.231384     26.926530
     2.054054      1.943858     24.411270      2.252572     27.006341
     2.058058      1.962192     24.481353      2.274118     27.086945
     2.062062      1.980832     24.552126      2.296031     27.168353
     2.066066      1.999784     24.623597      2.318318     27.250577
     2.070070      2.019058     24.695779      2.340990     27.333631
     2.074074      2.038660     24.768681      2.364055     27.417527
     2.078078      2.058598     24.842316      2.387523     27.502279
     2.082082      2.078880     24.916694      2.411404     27.587899
     2.086086      2.099515     24.991827      2.435709     27.674403
     2.090090      2.120512     25.067728      2.460447     27.761803
     2.094094      2.141878     25.144407      2.485630     27.850114
     2.098098      2.163624     25.221878      2.511269     27.939352
     2.102102      2.185759     25.300152      2.537376     28.029531
     2.106106      2.208292     25.379244      2.563962     28.120666
     2.110110      2.231234     25.459166      2.591040     28.212773
     2.114114      2.254595     25.539932      2.618624     28.305868
     2.118118      2.278387     25.621555      2.646725     28.399968
     2.122122      2.302619     25.704050      2.675358     28.495090
     2.126126      2.327304     25.787431      2.704537     28.591250
     2.130130      2.352453     25.871713      2.734277     28.688466
     2.134134      2.378079     25.956910      2.764593     28.786756
     2.138138      2.404194     26.043039      2.795500     28.886139
     2.142142      2.430813     26.130114      2.827016     28.986633
     2.146146      2.457947     26.218153      2.859155     29.088257
     2.150150      2.485612     26.307171      2.891937     29.191031
     2.154154      2.513821     26.397185      2.925379     29.294976
     2.158158      2.542591     26.488212      2.959500     29.400111
     2.162162      2.571936     26.580271      2.994318     29.506457
     2.166166      2.601874     26.673379      3.029855     29.614037
     2.170170      2.632419     26.767554      3.066132     29.722872
     2.174174      2.663591     26.862815      3.103168     29.832984
     2.178178      2.695407     26.959182      3.140988     29.944397
     2.182182      2.727886     27.056674      3.179615     30.057135
     2.186186      2.761047     27.155312      3.219072     30.171220
     2.190190      2.794911     27.255115      3.259385     30.286679
     2.194194      2.829498     27.356106      3.300579     30.403535
     2.198198      2.864829     27.458305      3.342682     30.521816
     2.202202      2.900929     27.561734      3.385722     30.641547
     2.206206      2.937819     27.666417      3.429729     30.762755
     2.210210      2.975525     27.772376      3.474732     30.885469
     2.214214      3.014071     27.879635      3.520763     31.009715
     2.218218      3.053485     27.988218      3.567856     31.135524
     2.222222      3.093793     28.098150      3.616044     31.262925
     2.226226      3.135023     28.209455      3.665364     31.391948
     2.230230      3.177207     28.322160      3.715852     31.522623
     2.234234      3.220373     28.436292      3.767548     31.654984
     2.238238      3.264556     28.551877      3.820491     31.789061
     2.242242      3.309787     28.668942      3.874724     31.924888
     2.246246      3.356102     28.787516      3.930290     32.062499
     2.250250      3.403538     28.907628      3.987237     32.201929
     2.254254      3.452132     29.029307      4.045611     32.343212
     2.258258      3.501924     29.152583      4.105462     32.486384
     2.262262      3.552956     29.277487      4.166844     32.631483
     2.266266      3.605270     29.404050      4.229809     32.778545
     2.270270      3.658912     29.532304      4.294416     32.927609
     2.274274      3.713928     29.662281      4.360723     33.078715
     2.278278      3.770369     29.794015      4.428794     33.231900
     2.282282      3.828284     29.927540      4.498693     33.387207
     2.286286      3.887729     30.062889      4.570488     33.544676
     2.290290      3.948760     30.200098      4.644252     33.704349
     2.294294      4.011435     30.339203      4.720059     33.866268
     2.298298      4.075816     30.480239      4.797987     34.030476
     2.302302      4.141969     30.623243      4.878118     34.197018
     2.306306      4.209959     30.768252      4.960540     34.365937
     2.310310      4.279859     30.915305      5.045342     34.537277
     2.314314      4.351743     31.064438      5.132619     34.711085
     2.318318      4.425689     31.215690      5.222470     34.887405
     2.322322      4.501779     31.369099      5.315001     35.066283
     2.326326      4.580098     31.524706      5.410321     35.247766
     2.330330      4.660737     31.682547      5.508546     35.431898
     2.334334      4.743791     31.842663      5.609795     35.618725
     2.338338      4.829358     32.005093      5.714198     35.808294
     2.342342      4.917545     32.169873      5.821888     36.000648
     2.346346      5.008459     32.337044      5.933006     36.195833
     2.350350      5.102217     32.506642      6.047700     36.393891
     2.354354      5.198941     32.678704      6.166126     36.594864
     2.358358      5.298757     32.853266      6.288448     36.798794
     2.362362      5.401800     33.030362      6.414840     37.005719
     2.366366      5.508211     33.210025      6.545482     37.215675
     2.370370      5.618139     33.392286      6.680566     37.428696
     2.374374      5.731740     33.577173      6.820293     37.644813
     2.378378      5.849178     33.764712      6.964876     37.864052
     2.382382      5.970626     33.954925      7.114538     38.086434
     2.386386      6.096266     34.147830      7.269513     38.311977
     2.390390      6.226288     34.343442      7.430049     38.540692
     2.394394      6.360893     34.541770      7.596405     38.772581
     2.398398      6.500292     34.742814      7.768854     39.007641
     2.402402      6.644706     34.946573      7.947683     39.245856
     2.406406      6.794367     35.153033      8.133193     39.487204
     2.410410      6.949519     35.362172      8.325699     39.731647
     2.414414      7.110415     35.573961      8.525532     39.979134
     2.418418      7.277322     35.788354      8.733037     40.229601
     2.422422      7.450516     36.005297      8.948577     40.482963
     2.426426      7.630288     36.224717      9.172526     40.739118
     2.430430      7.816937     36.446527      9.405277     40.997941
     2.434434      8.010775     36.670619      9.647235     41.259282
     2.438438      8.212123     36.896868      9.898822     41.522964
     2.442442      8.421313     37.125123     10.160470     41.788780
     2.446446      8.638684     37.355208     10.432624     42.056489
     2.450450      8.864582     37.586918     10.715737     42.325813
     2.454454      9.099358     37.820021     11.010270     42.596434
     2.458458      9.343365     38.054249     11.316688     42.867991
     2.462462      9.596953     38.289298     11.635455     43.140077
     2.466466      9.860471     38.524828     11.967030     43.412232
     2.470470     10.134255     38.760456     12.311862     43.683947
     2.474474     10.418628     38.995761     12.670383     43.954654
     2.478478     10.713891     39.230273     13.043000     44.223732
     2.482482     11.020317     39.463485     13.430086     44.490502
     2.486486     11.338144     39.694842     13.831971     44.754227
     2.490490     11.667565     39.923751     14.248934     45.014118
     2.494494     12.008720     40.149583     14.681187     45.269338
     2.498498     12.361685     40.371677     15.128869     45.519008
     2.502503     12.726465     40.589349     15.592033     45.762217
     2.506507     13.102984     40.801906     16.070636     45.998038
     2.510511     13.491077     41.008655     16.564533     46.225540
     2.514515     13.890486     41.208926     17.073468     46.443812
     2.518519     14.300857     41.402084     17.597079     46.651986
     2.522523     14.721743     41.587558     18.134897     46.849257
     2.526527     15.152607     41.764862     18.686358     47.034916
     2.530531     15.592840     41.933620     19.250824     47.208375
     2.534535     16.041777     42.093588     19.827602     47.369186
     2.538539     16.498728     42.244680     20.415986     47.517068
     2.542543     16.963005     42.386978     21.015293     47.651917
     2.546547     17.433972     42.520747     21.624916     47.773805
     2.550551     17.911081     42.646430     22.244369     47.882976
     2.554555     18.393928     42.764642     22.873349     47.979821
     2.558559     18.882296     42.876140     23.511777     48.064839
     2.562563     19.376200     42.981794     24.159849     48.138583
     2.566567     19.875927     43.082533     24.818059     48.201596
     2.570571     20.382057     43.179292     25.487222     48.254334
     2.574575     20.895480     43.272941     26.168468     48.297083
     2.578579     21.417396     43.364217     26.863219     48.329874
     2.582583     21.949289     43.453658     27.573150     48.352405
     2.586587     22.492904     43.541532     28.300122     48.363963
     2.590591     23.050192     43.627785     29.046111     48.363373
     2.594595     23.623259     43.711991     29.813112     48.348946
     2.598599     24.214294     43.793316     30.603043     48.318459
     2.602603     24.825503     43.870501     31.417633     48.269149
     2.606607     25.459035     43.941849     32.258325     48.197724
     2.610611     26.116909     44.005234     33.126161     48.100398
     2.614615     26.800946     44.058109     34.021690     47.972942
     2.618619     27.512707     44.097538     34.944873     47.810751
     2.622623     28.253426     44.120226     35.894999     47.608933
     2.626627     29.023965     44.122559     36.870618     47.362402
     2.630631     29.824756     44.100652     37.869481     47.065997
     2.634635     30.655764     44.050400     38.888506     46.714604
     2.638639     31.516449     43.967536     39.923755     46.303293
     2.642643     32.405734     43.847693     40.970440     45.827459
     2.646647     33.321984     43.686469     42.022945     45.282968
     2.650651     34.262989     43.479501     43.074886     44.666303
     2.654655     35.225958     43.222533     44.119189     43.974706
     2.658659     36.207519     42.911496     45.148199     43.206301
     2.662663     37.203735     42.542584     46.153814     42.360209
     2.666667     38.210124     42.112331     47.127642     41.436630
     2.670671     39.221691     41.617683     48.061178     40.436904
     2.674675     40.232979     41.056075     48.945984     39.363531
     2.678679     41.238118     40.425491     49.773886     38.220162
     2.682683     42.230895     39.724526     50.537155     37.011550
     2.686687     43.204824     38.952431     51.228684     35.743463
     2.690691     44.153231     38.109154     51.842138     34.422568
     2.694695     45.069338     37.195362     52.372083     33.056289
     2.698699     45.946349     36.212451     52.814075     31.652643
     2.702703     46.777535     35.162544     53.164715     30.220065
     2.706707     47.556315     34.048479     53.421670     28.767240
     2.710711     48.276324     32.873783     53.583648     27.302933
     2.714715     48.931482     31.642647     53.650355     25.835851
     2.718719     49.516039     30.359901     53.622427     24.374521
     2.722723     50.024633     29.030989     53.501345     22.927200
     2.726727     50.452335     27.661954     53.289358     21.501812
     2.730731     50.794706     26.259426     52.989406     20.105907
     2.734735     51.047863     24.830618     52.605067     18.746636
     2.738739     51.208572     23.383308     52.140512     17.430730
     2.742743     51.274343     21.925816     51.600478     16.164478
     2.746747     51.243557     20.466947     50.990250     14.953691
     2.750751     51.115591     19.015909     50.315649     13.803652
     2.754755     50.890939     17.582183     49.583003     12.719053
     2.758759     50.571322     16.175355     48.799107     11.703913
     2.762763     50.159749     14.804907     47.971166     10.761507
     2.766767     49.660546     13.479988     47.106700      9.894278
     2.770771     49.079318     12.209162     46.213440      9.103788
     2.774775     48.422852     11.000172     45.299200      8.390667
     2.778779     47.698968      9.859719     44.371733      7.754605
     2.782783     46.916311      8.793283     43.438596      7.194370
     2.786787     46.084119      7.805001     42.507008      6.707848
     2.790791     45.211962      6.897592     41.583731      6.292115
     2.794795     44.309483      6.072347     40.674967      5.943530
     2.798799     43.386147      5.329181     39.786270      5.657837
     2.802803     42.451024      4.666715     38.922492      5.430275
     2.806807     41.512591      4.082415     38.087740      5.255700
     2.810811     40.578584      3.572743     37.285361      5.128686
     2.814815     39.655887      3.133327     36.517941      5.043641
     2.818819     38.750452      2.759141     35.787311      4.994896
     2.822823     37.867267      2.444671     35.094575      4.976803
     2.826827     37.010335      2.184087     34.440133      4.983810
     2.830831     36.182695      1.971391     33.823716      5.010537
     2.834835     35.386453      1.800556     33.244423      5.051845
     2.838839     34.622822      1.665653     32.700760      5.102903
     2.842843     33.892188      1.560958     32.190685      5.159245
     2.846847     33.194172      1.481055     31.711654      5.216833
     2.850851     32.527703      1.420922     31.260677      5.272115
     2.854855     31.891101      1.376007     30.834381      5.322080
     2.858859     31.282165      1.342293     30.429084      5.364311
     2.862863     30.698264      1.316359     30.040878      5.397028
     2.866867     30.136444      1.295416     29.665725      5.419125
     2.870871     29.593530      1.277345     29.299564      5.430186
     2.874875     29.066250      1.260701     28.938424      5.430488
     2.878879     28.551340      1.244714     28.578541      5.420984
     2.882883     28.045669      1.229258     28.216481      5.403251
     2.886887     27.546345      1.214802     27.849242      5.379426
     2.890891     27.050817      1.202343     27.474352      5.352108
     2.894895     26.556955      1.193315     27.089941      5.324246
     2.898899     26.063118      1.189482     26.694791      5.299014
     2.902903     25.568184      1.192828     26.288346      5.279671
     2.906907     25.071570      1.205438     25.870708      5.269430
     2.910911     24.573212      1.229384     25.442583      5.271333
     2.914915     24.073528      1.266622     25.005221      5.288144
     2.918919     23.573357      1.318902     24.560325      5.322262
     2.922923     23.073890      1.387705     24.109953      5.375661
     2.926927     22.576581      1.474188     23.656410      5.449855
     2.930931     22.083071      1.579166     23.202148      5.545887
     2.934935     21.595098      1.703103     22.749669      5.664345
     2.938939     21.114429      1.846125     22.301439      5.805386
     2.942943     20.642791      2.008048     21.859826      5.968787
     2.946947     20.181822      2.188410     21.427037      6.153990
     2.950951     19.733030      2.386515     21.005087      6.360161
     2.954955     19.297767      2.601476     20.595773      6.586250
     2.958959     18.877213      2.832261     20.200663      6.831037
     2.962963     18.472372      3.077729     19.821096      7.093188
     2.966967     18.084071      3.336673     19.458192      7.371295
     2.970971     17.712969      3.607848     19.112861      7.663912
     2.974975     17.359572      3.890000     18.785826      7.969589
     2.978979     17.024243      4.181885     18.477638      8.286888
     2.982983     16.707223      4.482287     18.188704      8.614407
     2.986987     16.408647      4.790029     17.919300      8.950789
     2.990991     16.128557      5.103980     17.669598      9.294727
     2.994995     15.866923      5.423059     17.439679      9.644970
     2.998999     15.623654      5.746235     17.229555     10.000323
     3.003003     15.398611      6.072529     17.039179     10.359641
     3.007007     15.191618      6.401007     16.868459     10.721830
     3.011011     15.002473      6.730776     16.717269     11.085833
     3.015015     14.830952      7.060978     16.585456     11.450629
     3.019019     14.676817      7.390786     16.472844     11.815223
     3.023023     14.539818      7.719392     16.379240     12.178634
     3.027027     14.419696      8.046004     16.304435     12.539891
     3.031031     14.316185      8.369836     16.248200     12.898018
     3.035035     14.229004      8.690100     16.210287     13.252033
     3.039039     14.157862      9.006000     16.190419     13.600931
     3.043043     14.102447      9.316726     16.188289     13.943684
     3.047047     14.062421      9.621447     16.203542     14.279229
     3.051051     14.037413      9.919305     16.235772     14.606468
     3.055055     14.027007     10.209414     16.284501     14.924262
     3.059059     14.030731     10.490858     16.349167     15.231430
     3.063063     14.048042     10.762689     16.429106     15.526756
     3.067067     14.078315     11.023931     16.523529     15.808990
     3.071071     14.120821     11.273588     16.631508     16.076861
     3.075075     14.174719     11.510651     16.751950     16.329095
     3.079079     14.239032     11.734113     16.883581     16.564429
     3.083083     14.312635     11.942989     17.024923     16.781648
     3.087087     14.394242     12.136335     17.174286     16.979609
     3.091091     14.482393     12.313282     17.329753     17.157289
     3.095095     14.575451     12.473067     17.489182     17.313825
     3.099099     14.671601     12.615070     17.650208     17.448569
     3.103103     14.768861     12.738856     17.810266     17.561137
     3.107107     14.865097     12.844220     17.966619     17.651466
     3.111111     14.958054     12.931222     18.116407     17.719865
     3.115115     15.045395     13.000237     18.256701     17.767056
     3.119119     15.124754     13.051975     18.384582     17.794213
     3.123123     15.193796     13.087511     18.497221     17.802972
     3.127127     15.250288     13.108292     18.591975     17.795437
     3.131131     15.292174     13.116127     18.666479     17.774151
     3.135135     15.317647     13.113164     18.718740     17.742056
     3.139139     15.325223     13.101847     18.747215     17.702418
     3.143143     15.313798     13.084850     18.750880     17.658743
     3.147147     15.282693     13.065010     18.729271     17.614672
     3.151151     15.231686     13.045233     18.682504     17.573867
     3.155155     15.161010     13.028411     18.611263     17.539902
     3.159159     15.071346     13.017327     18.516771     17.516151
     3.163163     14.963783     13.014580     18.400723     17.505697
     3.167167     14.839767     13.022507     18.265219     17.511252
     3.171171     14.701032     13.043137     18.112665     17.535107
     3.175175     14.549534     13.078150     17.945687     17.579099
     3.179179     14.387368     13.128861     17.767030     17.644599
     3.183183     14.216701     13.196217     17.579475     17.732531
     3.187187     14.039698     13.280816     17.385755     17.843393
     3.191191     13.858469     13.382933     17.188494     17.977302
     3.195195     13.675018     13.502551     16.990156     18.134045
     3.199199     13.491209     13.639409     16.793005     18.313129
     3.203203     13.308740     13.793040     16.599083     18.513839
     3.207207     13.129126     13.962816     16.410200     18.735290
     3.211211     12.953699     14.147991     16.227934     18.976476
     3.215215     12.783604     14.347734     16.053631     19.236313
     3.219219     12.619807     14.561165     15.888425     19.513676
     3.223223     12.463109     14.787381     15.733252     19.807433
     3.227227     12.314159     15.025482     15.588868     20.116466
     3.231231     12.173468     15.274584     15.455870     20.439695
     3.235235     12.041425     15.533838     15.334718     20.776090
     3.239239     11.918318     15.802439     15.225752     21.124683
     3.243243     11.804341     16.079629     15.129214     21.484570
     3.247247     11.699616     16.364707     15.045264     21.854923
     3.251251     11.604203     16.657030     14.973997     22.234984
     3.255255     11.518112     16.956011     14.915453     22.624068
     3.259259     11.441315     17.261118     14.869635     23.021561
     3.263263     11.373750     17.571877     14.836517     23.426915
     3.267267     11.315339     17.887863     14.816053     23.839647
     3.271271     11.265983     18.208704     14.808187     24.259334
     3.275275     11.225579     18.534070     14.812857     24.685609
     3.279279     11.194015     18.863678     14.830003     25.118155
     3.283283     11.171183     19.197281     14.859573     25.556704
     3.287287     11.156976     19.534671     14.901525     26.001030
     3.291291     11.151293     19.875672     14.955828     26.450946
     3.295295     11.154043     20.220136     15.022473     26.906302
     3.299299     11.165144     20.567946     15.101466     27.366976
     3.303303     11.184526     20.919007     15.192836     27.832877
     3.307307     11.212133     21.273246     15.296636     28.303939
     3.311311     11.247923     21.630609     15.412944     28.780116
     3.315315     11.291870     21.991062     15.541861     29.261382
     3.319319     11.343963     22.354584     15.683520     29.747728
     3.323323     11.404207     22.721168     15.838079     30.239158
     3.327327     11.472625     23.090819     16.005726     30.735687
     3.331331     11.549259     23.463553     16.186682     31.237340
     3.335335     11.634165     23.839394     16.381198     31.744149
     3.339339     11.727421     24.218372     16.589557     32.256150
     3.343343     11.829123     24.600524     16.812078     32.773380
     3.347347     11.939385     24.985894     17.049113     33.295879
     3.351351     12.058342     25.374524     17.301051     33.823683
     3.355355     12.186148     25.766462     17.568318     34.356823
     3.359359     12.322979     26.161756     17.851381     34.895323
     3.363363     12.469031     26.560453     18.150744     35.439200
     3.367367     12.624522     26.962597     18.466954     35.988455
     3.371371     12.789692     27.368230     18.800601     36.543075
     3.375375     12.964805     27.777390     19.152319     37.103028
     3.379379     13.150147     28.190107     19.522790     37.668260
     3.383383     13.346029     28.606403     19.912740     38.238691
     3.387387     13.552785     29.026293     20.322947     38.814208
     3.391391     13.770778     29.449777     20.754239     39.394667
     3.395395     14.000393     29.876843     21.207497     39.979879
     3.399399     14.242046     30.307463     21.683652     40.569613
     3.403403     14.496176     30.741588     22.183694     41.163581
     3.407407     14.763252     31.179150     22.708664     41.761439
     3.411411     15.043772     31.620057     23.259661     42.362773
     3.415415     15.338261     32.064185     23.837838     42.967095
     3.419419     15.647273     32.511384     24.444404     43.573830
     3.423423     15.971388     32.961462     25.080619     44.182311
     3.427427     16.311218     33.414193     25.747797     44.791760
     3.431431     16.667397     33.869301     26.447295     45.401284
     3.435435     17.040588     34.326463     27.180516     46.009859
     3.439439     17.431473     34.785299     27.948896     46.616313
     3.443443     17.840757     35.245367     28.753898     47.219320
     3.447447     18.269162     35.706158     29.597002     47.817376
     3.451451     18.717418     36.167089     30.479687     48.408790
     3.455455     19.186266     36.627495     31.403421     48.991664
     3.459459     19.676442     37.086624     32.369635     49.563885
     3.463463     20.188672     37.543630     33.379700     50.123102
     3.467467     20.723665     37.997568     34.434901     50.666722
     3.471471     21.282093     38.447387     35.536404     51.191894
     3.475475     21.864583     38.891928     36.685216     51.695508
     3.479479     22.471700     39.329919     37.882148     52.174188
     3.483483     23.103926     39.759978     39.127764     52.624302
     3.487487     23.761644     40.180614     40.422336     53.041969
     3.491491     24.445113     40.590231     41.765792     53.423084
     3.495495     25.154448     40.987141     43.157662     53.763348
     3.499499     25.889594     41.369579     44.597027     54.058312
     3.503504     26.650311     41.735721     46.082473     54.303432
     3.507508     27.436146     42.083712     47.612051     54.494140
     3.511512     28.246420     42.411699     49.183249     54.625924
     3.515516     29.080217     42.717868     50.792976     54.694424
     3.519520     29.936379     43.000488     52.437568     54.695526
     3.523524     30.813512     43.257960     54.112817     54.625474
     3.527528     31.709999     43.488862     55.814019     54.480966
     3.531532     32.624033     43.692003     57.536056     54.259250
     3.535536     33.553650     43.866463     59.273493     53.958200
     3.539540     34.496790     44.011631     61.020698     53.576369
     3.543544     35.451352     44.127232     62.771979     53.113012
     3.547548     36.415271     44.213332     64.521721     52.568073
     3.551552     37.386592     44.270335     66.264514     51.942136
     3.555556     38.363538     44.298955     67.995275     51.236346
     3.559560     39.344582     44.300170     69.709324     50.452301
     3.563564     40.328493     44.275162     71.402444     49.591923
     3.567568     41.314378     44.225243     73.070883     48.657329
     3.571572     42.301692     44.151779     74.711335     47.650712
     3.575576     43.290234     44.056109     76.320868     46.574239
     3.579580     44.280120     43.939476     77.896852     45.429983
     3.583584     45.271747     43.802973     79.436853     44.219895
     3.587588     46.265734     43.647497     80.938555     42.945803
     3.591592     47.262877     43.473732     82.399681     41.609453
     3.595596     48.264093     43.282140     83.817954     40.212563
     3.599600     49.270386     43.072975     85.191085     38.756881
     3.603604     50.282818     42.846293     86.516790     37.244248
     3.607608     51.302498     42.601970     87.792840     35.676627
     3.611612     52.330585     42.339715     89.017111     34.056109
     3.615616     53.368299     42.059064     90.187648     32.384894
     3.619620     54.416933     41.759367     91.302703     30.665231
     3.623624     55.477864     41.439752     92.360751     28.899350
     3.627628     56.552550     41.099082     93.360475     27.089374
     3.631632     57.642509     40.735897     94.300714     25.237246
     3.635636     58.749280     40.348354     95.180375     23.344672
     3.639640     59.874361     39.934181     95.998328     21.413093
     3.643644     61.019123     39.490627     96.753290     19.443698
     3.647648     62.184715     39.014441     97.443700     17.437476
     3.651652     63.371949     38.501878     98.067629     15.395310
     3.655656     64.581186     37.948715     98.622696     13.318101
     3.659660     65.812221     37.350308     99.106036     11.206911
     3.663664     67.064175     36.701670     99.514302      9.063133
     3.667668     68.335400     35.997565     99.843711      6.888646
      3.67167      69.62340      35.23263     100.09014       4.68597
      3.67568      70.92477      34.40153     100.24924       2.45841
      3.67968      72.23515      33.49908     100.31664       0.21012
      3.68368      73.54924      32.52044     100.28810      -2.05377
      3.68769      74.86078      31.46128     100.15974      -4.32720
     3.691692     76.162621     30.317956     99.928278     -6.603162
     3.695696     77.446804     29.087720     99.591229     -8.873799
     3.699700     78.704689     27.768869     99.147131    -11.130548
     3.703704     79.927123     26.360922     98.595716    -13.364316
     3.707708     81.104652     24.864754     97.938052    -15.565716
     3.711712     82.227777     23.282687     97.176636    -17.725336
     3.715716     83.287243     21.618536     96.315419    -19.834033
     3.719720     84.274345     19.877577     95.359762    -21.883234
     3.723724     85.181243     18.066449     94.316327    -23.865234
     3.727728     86.001257     16.192964     93.192886    -25.773462
     3.731732     86.729119     14.265847     91.998082    -27.602703
     3.735736     87.361156     12.294398     90.741122    -29.349259
     3.739740     87.895389     10.288110     89.431448    -31.011038
     3.743744     88.331524      8.256260     88.078387    -32.587558
     3.747748     88.670827      6.207505     86.690814    -34.079868
     3.751752     88.915900      4.149526     85.276832    -35.490391
     3.755756     89.070345      2.088736     83.843514    -36.822692
    3.7598        89.138       0.30092E-1     82.397       -38.081   
     3.763764     89.124371     -2.022972     80.940849    -39.270873
     3.767768     89.032434     -4.068490     79.479050    -40.396872
     3.771772     88.865978     -6.105780     78.013009    -41.464211
     3.775776     88.627379     -8.135152     76.543201    -42.477450
     3.779780     88.317726    -10.157525     75.069058    -43.440428
     3.783784     87.936688    -12.173985     73.589222    -44.356052
     3.787788     87.482512    -14.185320     72.101836    -45.226169
     3.791792     86.952151    -16.191567     70.604859    -46.051508
     3.795796     86.341522    -18.191610     69.096366    -46.831716
     3.799800     85.645873    -20.182863     67.574836    -47.565465
     3.803804     84.860218    -22.161061     66.039384    -48.250622
     3.807808     83.979837    -24.120189     64.489940    -48.884481
     3.811812     83.000766    -26.052544     62.927350    -49.464009
     3.815816     81.920263    -27.948936     61.353412    -49.986117
     3.819820     80.737200    -29.799011     59.770834    -50.447907
     3.823824     79.452352    -31.591667     58.183138    -50.846898
     3.827828     78.068565    -33.315531     56.594509    -51.181200
     3.831832     76.590785    -34.959457     55.009624    -51.449642
     3.835836     75.025960    -36.513009     53.433454    -51.651850
     3.839840     73.382826    -37.966888     51.871073    -51.788260
     3.843844     71.671598    -39.313278     50.327482    -51.860098
     3.847848     69.903597    -40.546097     48.807454    -51.869318
     3.851852     68.090847    -41.661143     47.315406    -51.818511
     3.855856     66.245675    -42.656131     45.855304    -51.710798
     3.859860     64.380326    -43.530639     44.430603    -51.549719
     3.863864     62.506632    -44.285983     43.044208    -51.339118
     3.867868     60.635733    -44.925029     41.698465    -51.083033
     3.871872     58.777862    -45.451967     40.395171    -50.785597
     3.875876     56.942199    -45.872067     39.135601    -50.450956
     3.879880     55.136777    -46.191436     37.920540    -50.083191
     3.883884     53.368449    -46.416777     36.750332    -49.686260
     3.887888     51.642889    -46.555174     35.624923    -49.263954
     3.891892     49.964642    -46.613895     34.543912    -48.819857
     3.895896     48.337183    -46.600226     33.506600    -48.357324
     3.899900     46.763009    -46.521331     32.512033    -47.879462
     3.903904     45.243731    -46.384138     31.559049    -47.389117
     3.907908     43.780175    -46.195252     30.646320    -46.888874
     3.911912     42.372487    -45.960884     29.772386    -46.381053
     3.915916     41.020234    -45.686811     28.935695    -45.867712
     3.919920     39.722497    -45.378336     28.134635    -45.350655
     3.923924     38.477971    -45.040279     27.367563    -44.831441
     3.927928     37.285044    -44.676964     26.632836    -44.311393
     3.931932     36.141885    -44.292235     25.928836    -43.791616
     3.935936     35.046515    -43.889460     25.253990    -43.273015
     3.939940     33.996874    -43.471564     24.606798    -42.756308
     3.943944     32.990881    -43.041054     23.985842    -42.242056
     3.947948     32.026486    -42.600057     23.389803    -41.730679
     3.951952     31.101711    -42.150361     22.817472    -41.222484
     3.955956     30.214685    -41.693462     22.267750    -40.717690
     3.959960     29.363666    -41.230605     21.739649    -40.216447
     3.963964     28.547057    -40.762832     21.232295    -39.718862
     3.967968     27.763410    -40.291027     20.744912    -39.225016
     3.971972     27.011427    -39.815956     20.276820    -38.734982
     3.975976     26.289947    -39.338299     19.827417    -38.248840
     3.979980     25.597938    -38.858684     19.396173    -37.766684
     3.983984     24.934479    -38.377707     18.982614    -37.288628
     3.987988     24.298739    -37.895956     18.586310    -36.814819
     3.991992     23.689964    -37.414016     18.206863    -36.345426
     3.995996     23.107456    -36.932483     17.843899    -35.880652
     4.000000     22.550557    -36.451967     17.497059    -35.420726
# 
# 09/18/2019 at 16:16 YAMBO @ Alejandro-4.local [start]
# 09/18/2019 at 16:16                           [end]
#  
# Timing   [Min/Max/Average]: 02s/02s/02s
#
# .-Input file : rpa-reference/08-eps-rpa_rpa-reference.in
# | optics                         # [R OPT] Optics
# | chi                            # [R CHI] Dyson equation for Chi.
# | BoseTemp= 0.000000     eV      # Bosonic Temperature
# | FFTGvecs= 229          RL      # [FFT] Plane-waves
# | Chimod= "HARTREE"              # [X] IP/Hartree/ALDA/LRC/PF/BSfxc
# | NGsBlkXd=  51          RL      # [Xd] Response block size
# | % QpntsRXd
# |  1 | 1 |                       # [Xd] Transferred momenta
# | %
# | % BndsRnXd
# |   2 |  7 |                     # [Xd] Polarization function bands
# | %
# | % EnRngeXd
# |  0.000000 | 4.000000 | eV      # [Xd] Energy range
# | %
# | % DmRngeXd
# |   0.10000 |  0.10000 | eV      # [Xd] Damping range
# | %
# | ETStpsXd= 1000                 # [Xd] Total Energy steps
# | % LongDrXd
# | 0.5774E-5 |0.5774E-5 |0.5774E-5 |        # [Xd] [cc] Electric Field
# | %
